File: DATA/Test-20220320T091458/Test_test_Scan1_20220320T091458.xdi
# XDI/1.0 SED_XAFS/0.9
# Column.1: energy eV
# Column.2: I0
# Column.3: Itrans
# Column.4: Irefer
# Column.5: mutrans (log(I0/Itrans))
# Column.6: murefer (log(Itrans/Irefer))
# Experiment.Type: Local
# Base.file_name: Test
# Element.edge: K
# Mono.name: Si 111
# Mono.d_spacing: 3.1356
# Mono.settling_time: 0.01
# Beamline.name: XAFS/XRF Beamline (08-BM)
# Beamline.collimation: slits
# Beamline.focusing: no
# Beamline.harmonic_rejection: mirror coating VCM: Si, VFM: Si
# Facility.name: SESAME Synchrotron-light
# Facility.energy: 2.50 GeV
# Facility.current: 0.0
# Facility.xray_source: SESAME Bending Magnet
# Scan.start_time: 2022-03-20T09:14:58
# Scan.end_time: 2022-03-20T09:15:28
# Scan.edge_energy: 22
# Scan.number: 1/2 -- intervals: 2, samples: 1
# Detector.IC1: 15cm  v
# Detector.IC2: 30cm  v
# Detector.IC3: 15cm  v
# Element.symbol: Cu
# Sample.stoichiometry: NONE
# Sample.prep: mbnm
# ///
# Experiment comments and remarks: NONE
# User comments and remarks: NONE
#----
#(1)energy   (2)I0   (3)Itrans   (4)Irefer   (5)mutrans   (6)murefer
6.511127e+02  1.200000e+01  2.400000e+01  2.400000e+01  -6.931472e-01  0.000000e+00
6.542371e+02  1.200000e+01  2.400000e+01  2.400000e+01  -6.931472e-01  0.000000e+00
6.570053e+02  1.200000e+01  2.400000e+01  2.400000e+01  -6.931472e-01  0.000000e+00
6.604440e+02  1.200000e+01  2.400000e+01  2.400000e+01  -6.931472e-01  0.000000e+00
6.639033e+02  1.200000e+01  2.400000e+01  2.400000e+01  -6.931472e-01  0.000000e+00
6.663983e+02  1.200000e+01  2.400000e+01  2.400000e+01  -6.931472e-01  0.000000e+00
6.696799e+02  1.200000e+01  2.400000e+01  2.400000e+01  -6.931472e-01  0.000000e+00
6.724270e+02  1.200000e+01  2.400000e+01  2.400000e+01  -6.931472e-01  0.000000e+00
6.755256e+02  1.200000e+01  2.400000e+01  2.400000e+01  -6.931472e-01  0.000000e+00
6.792124e+02  1.200000e+01  2.400000e+01  2.400000e+01  -6.931472e-01  0.000000e+00
6.821271e+02  1.200000e+01  2.400000e+01  2.400000e+01  -6.931472e-01  0.000000e+00
6.849443e+02  1.200000e+01  2.400000e+01  2.400000e+01  -6.931472e-01  0.000000e+00
6.882402e+02  1.200000e+01  2.400000e+01  2.400000e+01  -6.931472e-01  0.000000e+00
6.908599e+02  1.200000e+01  2.400000e+01  2.400000e+01  -6.931472e-01  0.000000e+00
6.941358e+02  1.200000e+01  2.400000e+01  2.400000e+01  -6.931472e-01  0.000000e+00
6.968454e+02  1.200000e+01  2.400000e+01  2.400000e+01  -6.931472e-01  0.000000e+00
6.999240e+02  1.200000e+01  2.400000e+01  2.400000e+01  -6.931472e-01  0.000000e+00
7.037988e+02  1.200000e+01  2.400000e+01  2.400000e+01  -6.931472e-01  0.000000e+00
7.060781e+02  1.200000e+01  2.400000e+01  2.400000e+01  -6.931472e-01  0.000000e+00
7.088509e+02  1.200000e+01  2.400000e+01  2.400000e+01  -6.931472e-01  0.000000e+00
7.121254e+02  1.200000e+01  2.400000e+01  2.400000e+01  -6.931472e-01  0.000000e+00
7.149922e+02  1.200000e+01  2.400000e+01  2.400000e+01  -6.931472e-01  0.000000e+00
7.180598e+02  1.200000e+01  2.400000e+01  2.400000e+01  -6.931472e-01  0.000000e+00
7.216426e+02  1.200000e+01  2.400000e+01  2.400000e+01  -6.931472e-01  0.000000e+00
7.248128e+02  1.200000e+01  2.400000e+01  2.400000e+01  -6.931472e-01  0.000000e+00
7.275619e+02  1.200000e+01  2.400000e+01  2.400000e+01  -6.931472e-01  0.000000e+00
7.308316e+02  1.200000e+01  2.400000e+01  2.400000e+01  -6.931472e-01  0.000000e+00
7.333573e+02  1.200000e+01  2.400000e+01  2.400000e+01  -6.931472e-01  0.000000e+00
7.364069e+02  1.200000e+01  2.400000e+01  2.400000e+01  -6.931472e-01  0.000000e+00
7.396674e+02  1.200000e+01  2.400000e+01  2.400000e+01  -6.931472e-01  0.000000e+00
7.423009e+02  1.200000e+01  2.400000e+01  2.400000e+01  -6.931472e-01  0.000000e+00
7.459894e+02  1.200000e+01  2.400000e+01  2.400000e+01  -6.931472e-01  0.000000e+00
7.459894e+02  1.200000e+01  2.400000e+01  2.400000e+01  -6.931472e-01  0.000000e+00
1.040747e+03  1.200000e+01  2.400000e+01  2.400000e+01  -6.931472e-01  0.000000e+00
9.489357e+02  1.200000e+01  2.400000e+01  2.400000e+01  -6.931472e-01  0.000000e+00
9.579457e+02  1.200000e+01  2.400000e+01  2.400000e+01  -6.931472e-01  0.000000e+00
9.683194e+02  1.200000e+01  2.400000e+01  2.400000e+01  -6.931472e-01  0.000000e+00
9.770958e+02  1.200000e+01  2.400000e+01  2.400000e+01  -6.931472e-01  0.000000e+00
9.877581e+02  1.200000e+01  2.400000e+01  2.400000e+01  -6.931472e-01  0.000000e+00
9.968709e+02  1.200000e+01  2.400000e+01  2.400000e+01  -6.931472e-01  0.000000e+00
1.007214e+03  1.200000e+01  2.400000e+01  2.400000e+01  -6.931472e-01  0.000000e+00
1.018881e+03  1.200000e+01  2.400000e+01  2.400000e+01  -6.931472e-01  0.000000e+00
1.029342e+03  1.200000e+01  2.400000e+01  2.400000e+01  -6.931472e-01  0.000000e+00
1.037814e+03  1.200000e+01  2.400000e+01  2.400000e+01  -6.931472e-01  0.000000e+00
1.048542e+03  1.200000e+01  2.400000e+01  2.400000e+01  -6.931472e-01  0.000000e+00
1.059097e+03  1.200000e+01  2.400000e+01  2.400000e+01  -6.931472e-01  0.000000e+00
1.068349e+03  1.200000e+01  2.400000e+01  2.400000e+01  -6.931472e-01  0.000000e+00
1.078840e+03  1.200000e+01  2.400000e+01  2.400000e+01  -6.931472e-01  0.000000e+00
1.087983e+03  1.200000e+01  2.400000e+01  2.400000e+01  -6.931472e-01  0.000000e+00
1.099583e+03  1.200000e+01  2.400000e+01  2.400000e+01  -6.931472e-01  0.000000e+00
1.110270e+03  1.200000e+01  2.400000e+01  2.400000e+01  -6.931472e-01  0.000000e+00
1.118945e+03  1.200000e+01  2.400000e+01  2.400000e+01  -6.931472e-01  0.000000e+00
1.129771e+03  1.200000e+01  2.400000e+01  2.400000e+01  -6.931472e-01  0.000000e+00
1.140007e+03  1.200000e+01  2.400000e+01  2.400000e+01  -6.931472e-01  0.000000e+00
1.149373e+03  1.200000e+01  2.400000e+01  2.400000e+01  -6.931472e-01  0.000000e+00
1.159726e+03  1.200000e+01  2.400000e+01  2.400000e+01  -6.931472e-01  0.000000e+00
1.171257e+03  1.200000e+01  2.400000e+01  2.400000e+01  -6.931472e-01  0.000000e+00
1.180980e+03  1.200000e+01  2.400000e+01  2.400000e+01  -6.931472e-01  0.000000e+00
1.191341e+03  1.200000e+01  2.400000e+01  2.400000e+01  -6.931472e-01  0.000000e+00
1.200760e+03  1.200000e+01  2.400000e+01  2.400000e+01  -6.931472e-01  0.000000e+00
1.210820e+03  1.200000e+01  2.400000e+01  2.400000e+01  -6.931472e-01  0.000000e+00
1.221137e+03  1.200000e+01  2.400000e+01  2.400000e+01  -6.931472e-01  0.000000e+00
1.230057e+03  1.200000e+01  2.400000e+01  2.400000e+01  -6.931472e-01  0.000000e+00
1.240736e+03  1.200000e+01  2.400000e+01  2.400000e+01  -6.931472e-01  0.000000e+00
1.249569e+03  1.200000e+01  2.400000e+01  2.400000e+01  -6.931472e-01  0.000000e+00
1.262364e+03  1.200000e+01  2.400000e+01  2.400000e+01  -6.931472e-01  0.000000e+00
1.272569e+03  1.200000e+01  2.400000e+01  2.400000e+01  -6.931472e-01  0.000000e+00
1.281568e+03  1.200000e+01  2.400000e+01  2.400000e+01  -6.931472e-01  0.000000e+00
1.291828e+03  1.200000e+01  2.400000e+01  2.400000e+01  -6.931472e-01  0.000000e+00