File: tmp/SEM[1]/XAFS/20185101/data/csv/Malik_Scan(1)2021_10_13T12_28_47.xdi
# XDI/1.0 SED_XAFS/0.9
# Column.1: energy eV
# Column.2: Ionization Chamber (IC) number 1
# Column.3: Ionization Chamber (IC) number 2
# Column.4: Ionization Chamber (IC) number 3
# Column.5: Transmission (log(IC1 current/ IC2 current))
# Column.6: Transmission Reference (log(IC2 current/IC3 current))
# Column.7: KETEK-If
# Column.8: KETEK-FLUOR
# Column.9: KETEK-ROI_0[c/s]
# Column.10: KETEK-ROI_1[c/s]
# Column.11: KETEK-ROI_2[c/s]
# Column.12: KETEK-ROI_3[c/s]
# Column.13: KETEK-ROI_4[c/s]
# Column.14: KETEK-ROI_5[c/s]
# Column.15: KETEK-ROI_6[c/s]
# Column.16: KETEK-ROI_7[c/s]
# Column.17: KETEK-e-time[sec]
# Column.18: KETEK-DEADTIME[%]
# Column.19: KETEK-INT_TIME[sec]
# Column.20: KETEK-OCR
# Column.21: KETEK-ICR
# Base.file_name: Malik
# Scan.edge_energy: 8980.0
# Mono.name: Si 111
# Mono.d_spacing: 3.13553
# Beamline.name: 13ID
# Beamline.collimation: slits
# Beamline.focusing: no
# Beamline.harmonic_rejection: rhodium-coated mirror
# Facility.name: SESAME Synchrotron
# Facility.energy: 2.50 GeV
# Facility.xray_source: SESAME Bending Magnet
# Scan.start_time: 2021-10-13T12:29:23
# Detector.IC1: 15cm  N2
# Detector.IC2: 30cm  N2
# Detector.IC3: 15cm  N2
# Sample.name: Cu
# Sample.prep: Cu metal foil
# ///
# Cu foil Room Temperature
# measured at beamline 08-BM XAFS/XRF Beamline
#----
#(1)ENERGY-RBK   (2)IC1[V]   (3)IC2[V]   (4)IC3[V]   (5)TRANS   (6)TransRef   (7)KETEK-If   (8)KETEK-FLUOR   (9)KETEK-ROI_0[c/s]   (10)KETEK-ROI_1[c/s]   (11)KETEK-ROI_2[c/s]   (12)KETEK-ROI_3[c/s]   (13)KETEK-ROI_4[c/s]   (14)KETEK-ROI_5[c/s]   (15)KETEK-ROI_6[c/s]   (16)KETEK-ROI_7[c/s]   (17)KETEK-e-time[sec]   (18)KETEK-DEADTIME[%]   (19)KETEK-INT_TIME[sec]   (20)KETEK-OCR   (21)KETEK-ICR
1.524977e+01 1.000000e-16 1.000000e-16 5.107547e-03 0.000000e+00 -3.156433e+01 0.000000e+00 0.000000e+00 0.000000e+00 0.000000e+00 0.000000e+00 0.000000e+00 0.000000e+00 0.000000e+00 0.000000e+00 0.000000e+00 9.362957e-01 4.227887e-01 9.402710e-01 0.000000e+00 0.000000e+00
1.525099e+01 1.000000e-16 1.000000e-16 5.083230e-03 0.000000e+00 -3.155955e+01 0.000000e+00 0.000000e+00 0.000000e+00 0.000000e+00 0.000000e+00 0.000000e+00 0.000000e+00 0.000000e+00 0.000000e+00 0.000000e+00 1.006681e+00 1.142095e-01 1.007832e+00 0.000000e+00 0.000000e+00
1.525201e+01 1.000000e-16 1.000000e-16 5.144737e-03 0.000000e+00 -3.157158e+01 0.000000e+00 0.000000e+00 0.000000e+00 0.000000e+00 0.000000e+00 0.000000e+00 0.000000e+00 0.000000e+00 0.000000e+00 0.000000e+00 1.006346e+00 1.000959e-01 1.007354e+00 0.000000e+00 0.000000e+00
1.525300e+01 1.000000e-16 1.000000e-16 5.080370e-03 0.000000e+00 -3.155899e+01 0.000000e+00 0.000000e+00 0.000000e+00 0.000000e+00 0.000000e+00 0.000000e+00 0.000000e+00 0.000000e+00 0.000000e+00 0.000000e+00 1.006274e+00 9.372354e-02 1.007218e+00 0.000000e+00 0.000000e+00
1.525402e+01 1.000000e-16 1.000000e-16 5.036742e-03 0.000000e+00 -3.155037e+01 0.000000e+00 0.000000e+00 0.000000e+00 0.000000e+00 0.000000e+00 0.000000e+00 0.000000e+00 0.000000e+00 0.000000e+00 0.000000e+00 1.006336e+00 1.161839e-01 1.007506e+00 0.000000e+00 0.000000e+00
1.525501e+01 1.000000e-16 1.000000e-16 5.298267e-03 0.000000e+00 -3.160099e+01 0.000000e+00 0.000000e+00 0.000000e+00 0.000000e+00 0.000000e+00 0.000000e+00 0.000000e+00 0.000000e+00 0.000000e+00 0.000000e+00 1.006615e+00 1.188475e-01 1.007813e+00 0.000000e+00 0.000000e+00
1.525600e+01 1.000000e-16 1.000000e-16 5.123281e-03 0.000000e+00 -3.156740e+01 0.000000e+00 0.000000e+00 0.000000e+00 0.000000e+00 0.000000e+00 0.000000e+00 0.000000e+00 0.000000e+00 0.000000e+00 0.000000e+00 1.006431e+00 1.155068e-01 1.007595e+00 0.000000e+00 0.000000e+00
1.525699e+01 1.000000e-16 1.000000e-16 5.081800e-03 0.000000e+00 -3.155927e+01 0.000000e+00 0.000000e+00 0.000000e+00 0.000000e+00 0.000000e+00 0.000000e+00 0.000000e+00 0.000000e+00 0.000000e+00 0.000000e+00 1.006612e+00 1.030833e-01 1.007651e+00 0.000000e+00 0.000000e+00
1.525803e+01 1.000000e-16 1.000000e-16 5.193609e-03 0.000000e+00 -3.158104e+01 0.000000e+00 0.000000e+00 0.000000e+00 0.000000e+00 0.000000e+00 0.000000e+00 0.000000e+00 0.000000e+00 0.000000e+00 0.000000e+00 1.006535e+00 1.148605e-01 1.007692e+00 0.000000e+00 0.000000e+00
1.525903e+01 1.000000e-16 1.000000e-16 5.140685e-03 0.000000e+00 -3.157079e+01 0.000000e+00 0.000000e+00 0.000000e+00 0.000000e+00 0.000000e+00 0.000000e+00 0.000000e+00 0.000000e+00 0.000000e+00 0.000000e+00 1.006235e+00 1.001386e-01 1.007244e+00 0.000000e+00 0.000000e+00