File: tmp/SEM[1]/XAFS/20185101/data/csv/regdf_Scan(1)2021_10_12T22_04_55.xdi
# XDI/1.0 SED_XAFS/0.9
# Column.1: energy eV
# Column.2: Ionization Chamber (IC) number 1
# Column.3: Ionization Chamber (IC) number 2
# Column.4: Ionization Chamber (IC) number 3
# Column.5: Transmission (log(IC1 current/ IC2 current))
# Column.6: Transmission Reference (log(IC2 current/IC3 current))
# Column.7: KETEK-If
# Column.8: KETEK-FLUOR
# Column.9: KETEK-ROI_0[c/s]
# Column.10: KETEK-ROI_1[c/s]
# Column.11: KETEK-ROI_2[c/s]
# Column.12: KETEK-ROI_3[c/s]
# Column.13: KETEK-ROI_4[c/s]
# Column.14: KETEK-ROI_5[c/s]
# Column.15: KETEK-ROI_6[c/s]
# Column.16: KETEK-ROI_7[c/s]
# Column.17: KETEK-e-time[sec]
# Column.18: KETEK-DEADTIME[%]
# Column.19: KETEK-INT_TIME[sec]
# Column.20: KETEK-OCR
# Column.21: KETEK-ICR
# Base.file_name: regdf
# Scan.edge_energy: 8980.0
# Mono.name: Si 111
# Mono.d_spacing: 3.13553
# Beamline.name: 13ID
# Beamline.collimation: slits
# Beamline.focusing: no
# Beamline.harmonic_rejection: rhodium-coated mirror
# Facility.name: SESAME Synchrotron
# Facility.energy: 2.50 GeV
# Facility.xray_source: SESAME Bending Magnet
# Scan.start_time: 2021-10-12T22:05:09
# Detector.IC1: 15cm  d
# Detector.IC2: 30cm  d
# Detector.IC3: 15cm  d
# Sample.name: Cu
# Sample.prep: Cu metal foil
# ///
# Cu foil Room Temperature
# measured at beamline 08-BM XAFS/XRF Beamline
#----
#(1)ENERGY-RBK   (2)IC1[V]   (3)IC2[V]   (4)IC3[V]   (5)TRANS   (6)TransRef   (7)KETEK-If   (8)KETEK-FLUOR   (9)KETEK-ROI_0[c/s]   (10)KETEK-ROI_1[c/s]   (11)KETEK-ROI_2[c/s]   (12)KETEK-ROI_3[c/s]   (13)KETEK-ROI_4[c/s]   (14)KETEK-ROI_5[c/s]   (15)KETEK-ROI_6[c/s]   (16)KETEK-ROI_7[c/s]   (17)KETEK-e-time[sec]   (18)KETEK-DEADTIME[%]   (19)KETEK-INT_TIME[sec]   (20)KETEK-OCR   (21)KETEK-ICR
1.524994e+01 1.000000e-16 1.000000e-16 5.107309e-03 0.000000e+00 -3.156428e+01 0.000000e+00 0.000000e+00 0.000000e+00 0.000000e+00 0.000000e+00 0.000000e+00 0.000000e+00 0.000000e+00 0.000000e+00 0.000000e+00 9.970432e-01 4.401294e-01 1.001451e+00 0.000000e+00 0.000000e+00
1.525093e+01 1.000000e-16 1.000000e-16 5.167862e-03 0.000000e+00 -3.157607e+01 0.000000e+00 0.000000e+00 0.000000e+00 0.000000e+00 0.000000e+00 0.000000e+00 0.000000e+00 0.000000e+00 0.000000e+00 0.000000e+00 1.006580e+00 9.835933e-02 1.007571e+00 0.000000e+00 0.000000e+00
1.525201e+01 1.000000e-16 1.000000e-16 5.181451e-03 0.000000e+00 -3.157869e+01 0.000000e+00 0.000000e+00 0.000000e+00 0.000000e+00 0.000000e+00 0.000000e+00 0.000000e+00 0.000000e+00 0.000000e+00 0.000000e+00 1.006465e+00 1.181673e-01 1.007656e+00 0.000000e+00 0.000000e+00
1.525300e+01 1.000000e-16 1.000000e-16 5.258216e-03 0.000000e+00 -3.159340e+01 0.000000e+00 0.000000e+00 0.000000e+00 0.000000e+00 0.000000e+00 0.000000e+00 0.000000e+00 0.000000e+00 0.000000e+00 0.000000e+00 1.006529e+00 1.166057e-01 1.007704e+00 0.000000e+00 0.000000e+00
1.525399e+01 1.000000e-16 1.000000e-16 5.166909e-03 0.000000e+00 -3.157588e+01 0.000000e+00 0.000000e+00 0.000000e+00 0.000000e+00 0.000000e+00 0.000000e+00 0.000000e+00 0.000000e+00 0.000000e+00 0.000000e+00 1.006556e+00 1.034063e-01 1.007598e+00 0.000000e+00 0.000000e+00
1.525504e+01 1.000000e-16 1.000000e-16 5.108501e-03 0.000000e+00 -3.156451e+01 0.000000e+00 0.000000e+00 0.000000e+00 0.000000e+00 0.000000e+00 0.000000e+00 0.000000e+00 0.000000e+00 0.000000e+00 0.000000e+00 1.006528e+00 1.036630e-01 1.007572e+00 0.000000e+00 0.000000e+00
1.525605e+01 1.000000e-16 1.000000e-16 5.298506e-03 0.000000e+00 -3.160103e+01 0.000000e+00 0.000000e+00 0.000000e+00 0.000000e+00 0.000000e+00 0.000000e+00 0.000000e+00 0.000000e+00 0.000000e+00 0.000000e+00 1.006575e+00 9.648776e-02 1.007548e+00 0.000000e+00 0.000000e+00
1.525699e+01 1.000000e-16 1.000000e-16 5.065828e-03 0.000000e+00 -3.155612e+01 0.000000e+00 0.000000e+00 0.000000e+00 0.000000e+00 0.000000e+00 0.000000e+00 0.000000e+00 0.000000e+00 0.000000e+00 0.000000e+00 1.006360e+00 1.173865e-01 1.007543e+00 0.000000e+00 0.000000e+00
1.525801e+01 1.000000e-16 1.000000e-16 5.236760e-03 0.000000e+00 -3.158931e+01 0.000000e+00 0.000000e+00 0.000000e+00 0.000000e+00 0.000000e+00 0.000000e+00 0.000000e+00 0.000000e+00 0.000000e+00 0.000000e+00 1.006329e+00 1.164702e-01 1.007503e+00 0.000000e+00 0.000000e+00
1.525900e+01 1.000000e-16 1.000000e-16 5.211490e-03 0.000000e+00 -3.158447e+01 0.000000e+00 0.000000e+00 0.000000e+00 0.000000e+00 0.000000e+00 0.000000e+00 0.000000e+00 0.000000e+00 0.000000e+00 0.000000e+00 1.006456e+00 1.177877e-01 1.007643e+00 0.000000e+00 0.000000e+00