File: tmp/SEM[1]/XAFS/20185101/data/csv/Test settling time _Scan(1)2021_10_18T21_16_21.xdi
# XDI/1.0 SED_XAFS/0.9
# Column.1: energy eV
# Column.2: Ionization Chamber (IC) number 1
# Column.3: Ionization Chamber (IC) number 2
# Column.4: Ionization Chamber (IC) number 3
# Column.5: Transmission (log(IC1 current/ IC2 current))
# Column.6: Transmission Reference (log(IC2 current/IC3 current))
# Column.7: KETEK-If
# Column.8: KETEK-FLUOR
# Column.9: KETEK-ROI_0[c/s]
# Column.10: KETEK-ROI_1[c/s]
# Column.11: KETEK-ROI_2[c/s]
# Column.12: KETEK-e-time[sec]
# Column.13: KETEK-DEADTIME[%]
# Column.14: KETEK-INT_TIME[sec]
# Column.15: KETEK-OCR
# Column.16: KETEK-ICR
# Base.file_name: Test settling time
# Element.edge: K
# Mono.name: Si 111
# Mono.d_spacing: 3.13553
# Mono.settling_time: 1.2
# Beamline.name: XAFS/XRF Beamline (08-BM)
# Beamline.collimation: slits
# Beamline.focusing: no
# Beamline.harmonic_rejection: mirror coating VCM: Si, VFM: Si
# Facility.name: SESAME Synchrotron-light
# Facility.energy: 2.50 GeV
# Facility.current: 202.1839
# Facility.xray_source: SESAME Bending Magnet
# Scan.start_time: 2021-10-18T21:16:21
# Scan.end_time: 2021-10-18T21:16:30
# Scan.edge_energy: 25000
# Scan.number: 1/1 -- intervals: 1, samples: 1
# Detector.IC1: 15cm  12
# Detector.IC2: 30cm  2
# Detector.IC3: 15cm  3
# Element.symbol: Cu
# Sample.stoichiometry: NONE
# Sample.prep: fsdf
# ///
# Experiment comments and remarks: NONE
# User comments and remarks: NONE
#----
#(1)energy   (2)IC1[V]   (3)IC2[V]   (4)IC3[V]   (5)TRANS   (6)TransRef   (7)KETEK-If   (8)KETEK-FLUOR   (9)KETEK-ROI_0[c/s]   (10)KETEK-ROI_1[c/s]   (11)KETEK-ROI_2[c/s]   (12)KETEK-e-time[sec]   (13)KETEK-DEADTIME[%]   (14)KETEK-INT_TIME[sec]   (15)KETEK-OCR   (16)KETEK-ICR
1.524994e+01  1.000000e-16  1.000000e-16  5.030544e-03  0.000000e+00  -3.154913e+01  0.000000e+00  0.000000e+00  0.000000e+00  0.000000e+00  0.000000e+00  4.267264e-01  4.378875e-01  4.286032e-01  0.000000e+00  0.000000e+00
1.525093e+01  1.000000e-16  1.000000e-16  5.131149e-03  0.000000e+00  -3.156894e+01  0.000000e+00  0.000000e+00  0.000000e+00  0.000000e+00  0.000000e+00  5.030173e-01  1.114583e-01  5.035786e-01  0.000000e+00  0.000000e+00
1.525201e+01  1.000000e-16  1.000000e-16  4.990016e-03  0.000000e+00  -3.154105e+01  0.000000e+00  0.000000e+00  0.000000e+00  0.000000e+00  0.000000e+00  5.029206e-01  1.119241e-01  5.034842e-01  0.000000e+00  0.000000e+00
1.525303e+01  1.000000e-16  1.000000e-16  5.057006e-03  0.000000e+00  -3.155438e+01  0.000000e+00  0.000000e+00  0.000000e+00  0.000000e+00  0.000000e+00  5.032208e-01  9.764297e-02  5.037126e-01  0.000000e+00  0.000000e+00
1.525399e+01  1.000000e-16  1.000000e-16  5.066304e-03  0.000000e+00  -3.155622e+01  0.000000e+00  0.000000e+00  0.000000e+00  0.000000e+00  0.000000e+00  5.028813e-01  1.123138e-01  5.034467e-01  0.000000e+00  0.000000e+00
1.525504e+01  1.000000e-16  1.000000e-16  4.975474e-03  0.000000e+00  -3.153813e+01  0.000000e+00  0.000000e+00  0.000000e+00  0.000000e+00  0.000000e+00  5.031504e-01  1.111750e-01  5.037104e-01  0.000000e+00  0.000000e+00
1.525603e+01  1.000000e-16  1.000000e-16  5.101826e-03  0.000000e+00  -3.156320e+01  0.000000e+00  0.000000e+00  0.000000e+00  0.000000e+00  0.000000e+00  5.029642e-01  1.115970e-01  5.035261e-01  0.000000e+00  0.000000e+00
1.525699e+01  1.000000e-16  1.000000e-16  5.008611e-03  0.000000e+00  -3.154476e+01  0.000000e+00  0.000000e+00  0.000000e+00  0.000000e+00  0.000000e+00  5.029395e-01  1.137609e-01  5.035123e-01  0.000000e+00  0.000000e+00
1.525803e+01  1.000000e-16  1.000000e-16  4.944959e-03  0.000000e+00  -3.153197e+01  0.000000e+00  0.000000e+00  0.000000e+00  0.000000e+00  0.000000e+00  5.029264e-01  1.114149e-01  5.034874e-01  0.000000e+00  0.000000e+00
1.525903e+01  1.000000e-16  1.000000e-16  4.967607e-03  0.000000e+00  -3.153654e+01  0.000000e+00  0.000000e+00  0.000000e+00  0.000000e+00  0.000000e+00  5.030358e-01  1.121524e-01  5.036006e-01  0.000000e+00  0.000000e+00