File: tmp/SEM[1]/XAFS/20185101/data/csv/test_with_Malik_Scan(1)2021_10_17T10_24_23.xdi
# XDI/1.0 SED_XAFS/0.9
# Column.1: energy eV
# Column.2: Ionization Chamber (IC) number 1
# Column.3: Ionization Chamber (IC) number 2
# Column.4: Ionization Chamber (IC) number 3
# Column.5: Transmission (log(IC1 current/ IC2 current))
# Column.6: Transmission Reference (log(IC2 current/IC3 current))
# Base.file_name: test_with_Malik
# Element.edge: L1
# Mono.name: Si 111
# Mono.d_spacing: 3.13553
# Beamline.name: XAFS/XRF Beamline (08-BM)
# Beamline.collimation: slits
# Beamline.focusing: no
# Beamline.harmonic_rejection: mirror coating VCM: Pt, VFM: Si
# Facility.name: SESAME Synchrotron-light
# Facility.energy: 2.50 GeV
# Facility.current: -0.0655044
# Facility.xray_source: SESAME Bending Magnet
# Scan.start_time: 2021-10-17T10:24:23
# Scan.end_time: 2021-10-17T10:24:28
# Scan.edge_energy: 15000
# Scan.number: 1/1 -- intervals: 2, samples: 1
# Detector.IC1: 15cm  N2
# Detector.IC2: 30cm  N2
# Detector.IC3: 15cm  N2
# Element.symbol: As
# Sample.stoichiometry: AsO2
# Sample.prep: nothin
# ///
# Experiment comments and remarks: nothing 2
# User comments and remarks: nothing 1
#----
#(1)energy   (2)IC1[V]   (3)IC2[V]   (4)IC3[V]   (5)TRANS   (6)TransRef
1.524994e+01  1.000000e-16  1.000000e-16  4.916350e-03  0.000000e+00  -3.152617e+01
1.525096e+01  1.000000e-16  1.000000e-16  4.920880e-03  0.000000e+00  -3.152709e+01
1.525201e+01  1.000000e-16  1.000000e-16  4.908245e-03  0.000000e+00  -3.152452e+01
1.525300e+01  1.000000e-16  1.000000e-16  4.915874e-03  0.000000e+00  -3.152608e+01
1.525396e+01  1.000000e-16  1.000000e-16  4.976189e-03  0.000000e+00  -3.153827e+01
1.525501e+01  1.000000e-16  1.000000e-16  5.021723e-03  0.000000e+00  -3.154738e+01
1.525600e+01  1.000000e-16  1.000000e-16  4.916112e-03  0.000000e+00  -3.152612e+01
1.525699e+01  1.000000e-16  1.000000e-16  4.919688e-03  0.000000e+00  -3.152685e+01
1.525803e+01  1.000000e-16  1.000000e-16  5.006942e-03  0.000000e+00  -3.154443e+01
1.525900e+01  1.000000e-16  1.000000e-16  5.006942e-03  0.000000e+00  -3.154443e+01
1.525999e+01  1.000000e-16  1.000000e-16  4.945197e-03  0.000000e+00  -3.153202e+01
1.526098e+01  1.000000e-16  1.000000e-16  4.945197e-03  0.000000e+00  -3.153202e+01
1.526200e+01  1.000000e-16  1.000000e-16  5.032690e-03  0.000000e+00  -3.154956e+01
1.526299e+01  1.000000e-16  1.000000e-16  4.981910e-03  0.000000e+00  -3.153942e+01
1.526398e+01  1.000000e-16  1.000000e-16  4.891795e-03  0.000000e+00  -3.152117e+01
1.526503e+01  1.000000e-16  1.000000e-16  4.920165e-03  0.000000e+00  -3.152695e+01
1.526599e+01  1.000000e-16  1.000000e-16  5.062490e-03  0.000000e+00  -3.155546e+01
1.526701e+01  1.000000e-16  1.000000e-16  4.887742e-03  0.000000e+00  -3.152034e+01
1.526800e+01  1.000000e-16  1.000000e-16  5.021723e-03  0.000000e+00  -3.154738e+01
1.526902e+01  1.000000e-16  1.000000e-16  4.892987e-03  0.000000e+00  -3.152141e+01