File: tmp/SEM[1]/XAFS/20185101/data/csv/Test_Scan(1)2021_10_13T23_21_23.xdi
# XDI/1.0 SED_XAFS/0.9
# Column.1: energy eV
# Column.2: Ionization Chamber (IC) number 1
# Column.3: Ionization Chamber (IC) number 2
# Column.4: Ionization Chamber (IC) number 3
# Column.5: Transmission (log(IC1 current/ IC2 current))
# Column.6: Transmission Reference (log(IC2 current/IC3 current))
# Base.file_name: Test
# Scan.edge_energy: 8980.0
# Mono.name: Si 111
# Mono.d_spacing: 3.13553
# Beamline.name: 13ID
# Beamline.collimation: slits
# Beamline.focusing: no
# Beamline.harmonic_rejection: rhodium-coated mirror
# Facility.name: SESAME Synchrotron
# Facility.energy: 2.50 GeV
# Facility.xray_source: SESAME Bending Magnet
# Scan.start_time: 2021-10-13T23:21:52
# Detector.IC1: 15cm  N2
# Detector.IC2: 30cm  N2
# Detector.IC3: 15cm  N2
# Sample.name: Cu
# Sample.prep: Cu metal foil
# ///
# Cu foil Room Temperature
# measured at beamline 08-BM XAFS/XRF Beamline
#----
#(1)ENERGY-RBK   (2)IC1[V]   (3)IC2[V]   (4)IC3[V]   (5)TRANS   (6)TransRef
1.524994e+01   1.000000e-16   1.000000e-16   5.143069e-03   0.000000e+00   -3.157126e+01
1.525093e+01   1.000000e-16   1.000000e-16   5.077270e-03   0.000000e+00   -3.155838e+01
1.525201e+01   1.000000e-16   1.000000e-16   5.103733e-03   0.000000e+00   -3.156358e+01
1.525300e+01   1.000000e-16   1.000000e-16   4.945674e-03   0.000000e+00   -3.153212e+01
1.525399e+01   1.000000e-16   1.000000e-16   5.162856e-03   0.000000e+00   -3.157510e+01
1.525501e+01   1.000000e-16   1.000000e-16   5.197424e-03   0.000000e+00   -3.158177e+01
1.525603e+01   1.000000e-16   1.000000e-16   5.029590e-03   0.000000e+00   -3.154894e+01
1.525699e+01   1.000000e-16   1.000000e-16   5.019816e-03   0.000000e+00   -3.154700e+01
1.525801e+01   1.000000e-16   1.000000e-16   5.151651e-03   0.000000e+00   -3.157292e+01
1.525903e+01   1.000000e-16   1.000000e-16   5.205768e-03   0.000000e+00   -3.158337e+01
1.526002e+01   1.000000e-16   1.000000e-16   5.071072e-03   0.000000e+00   -3.155716e+01
1.526500e+01   1.000000e-16   1.000000e-16   5.105163e-03   0.000000e+00   -3.156386e+01