File: tmp/SEM[1]/XAFS/20185101/data/csv/Test_Scan(1)2021_10_13T22_13_04.xdi
# XDI/1.0 SED_XAFS/0.9
# Column.1: energy eV
# Column.2: Ionization Chamber (IC) number 1
# Column.3: Ionization Chamber (IC) number 2
# Column.4: Ionization Chamber (IC) number 3
# Column.5: Transmission (log(IC1 current/ IC2 current))
# Column.6: Transmission Reference (log(IC2 current/IC3 current))
# Base.file_name: Test
# Scan.edge_energy: 8980.0
# Mono.name: Si 111
# Mono.d_spacing: 3.13553
# Beamline.name: 13ID
# Beamline.collimation: slits
# Beamline.focusing: no
# Beamline.harmonic_rejection: rhodium-coated mirror
# Facility.name: SESAME Synchrotron
# Facility.energy: 2.50 GeV
# Facility.xray_source: SESAME Bending Magnet
# Scan.start_time: 2021-10-13T22:13:09
# Detector.IC1: 15cm  N2
# Detector.IC2: 30cm  N2
# Detector.IC3: 15cm  N2
# Sample.name: Cu
# Sample.prep: Cu metal foil
# ///
# Cu foil Room Temperature
# measured at beamline 08-BM XAFS/XRF Beamline
#----
#(1)ENERGY-RBK   (2)IC1[V]   (3)IC2[V]   (4)IC3[V]   (5)TRANS   (6)TransRef
1.524992e+01 1.000000e-16 1.000000e-16 5.199808e-03 0.000000e+00 -3.158223e+01
1.525093e+01 1.000000e-16 1.000000e-16 5.105401e-03 0.000000e+00 -3.156391e+01
1.525198e+01 1.000000e-16 1.000000e-16 5.095628e-03 0.000000e+00 -3.156199e+01
1.525300e+01 1.000000e-16 1.000000e-16 4.975712e-03 0.000000e+00 -3.153817e+01
1.525399e+01 1.000000e-16 1.000000e-16 5.204338e-03 0.000000e+00 -3.158310e+01
1.525501e+01 1.000000e-16 1.000000e-16 5.088237e-03 0.000000e+00 -3.156054e+01
1.525600e+01 1.000000e-16 1.000000e-16 5.041987e-03 0.000000e+00 -3.155141e+01
1.525696e+01 1.000000e-16 1.000000e-16 5.103971e-03 0.000000e+00 -3.156363e+01
1.525801e+01 1.000000e-16 1.000000e-16 5.088952e-03 0.000000e+00 -3.156068e+01
1.525900e+01 1.000000e-16 1.000000e-16 5.147837e-03 0.000000e+00 -3.157218e+01
1.525999e+01 1.000000e-16 1.000000e-16 5.242720e-03 0.000000e+00 -3.159045e+01
1.526104e+01 1.000000e-16 1.000000e-16 4.992162e-03 0.000000e+00 -3.154148e+01
1.526200e+01 1.000000e-16 1.000000e-16 5.055576e-03 0.000000e+00 -3.155410e+01
1.526299e+01 1.000000e-16 1.000000e-16 5.205530e-03 0.000000e+00 -3.158333e+01
1.526401e+01 1.000000e-16 1.000000e-16 5.045563e-03 0.000000e+00 -3.155212e+01
1.526500e+01 1.000000e-16 1.000000e-16 5.134010e-03 0.000000e+00 -3.156949e+01
1.526599e+01 1.000000e-16 1.000000e-16 5.104448e-03 0.000000e+00 -3.156372e+01
1.526701e+01 1.000000e-16 1.000000e-16 5.147598e-03 0.000000e+00 -3.157214e+01
1.526803e+01 1.000000e-16 1.000000e-16 5.147598e-03 0.000000e+00 -3.157214e+01
1.526900e+01 1.000000e-16 1.000000e-16 5.106117e-03 0.000000e+00 -3.156405e+01