File: tmp/SEM[1]/XAFS/20185101/data/csv/test_2int_2scans_Scan(1)2021-10-14T17:31:05.xdi
# XDI/1.0 SED_XAFS/0.9
# Column.1: energy eV
# Column.2: Ionization Chamber (IC) number 1
# Column.3: Ionization Chamber (IC) number 2
# Column.4: Ionization Chamber (IC) number 3
# Column.5: Transmission (log(IC1 current/ IC2 current))
# Column.6: Transmission Reference (log(IC2 current/IC3 current))
# Base.file_name: test_2int_2scans
# Element.edge: K
# Mono.name: Si 311
# Mono.d_spacing: 3.13553
# Beamline.name: XAFS/XRF Beamline (08-BM)
# Beamline.collimation: slits
# Beamline.focusing: no
# Beamline.harmonic_rejection: mirror coating VCM: Si, VFM: Pt
# Facility.name: SESAME Synchrotron-light
# Facility.energy: 2.50 GeV
# Facility.current: -0.0571458
# Facility.xray_source: SESAME Bending Magnet
# Scan.start_time: 2021_10_14T17_31_05
# Scan.end_time: 2021-10-14T17:31:10
# Scan.edge_energy: 99.889
# Scan.number: 1/2 -- intervals: 3, samples: 1
# Detector.IC1: 15cm  N2
# Detector.IC2: 30cm  N2
# Detector.IC3: 15cm  N2
# Element.symbol: Fe
# Sample.stoichiometry: NONE
# Sample.prep: Cu metal foil
# ///
# Experiment comments and remarks: NONE
# User comments and remarks: NONE
#----
#(1)energy   (2)IC1[V]   (3)IC2[V]   (4)IC3[V]   (5)TRANS   (6)TransRef
1.524994e+01  1.000000e-16  1.000000e-16  5.148075e-03  0.000000e+00  -3.157223e+01
1.525091e+01  1.000000e-16  1.000000e-16  5.010757e-03  0.000000e+00  -3.154519e+01
1.525201e+01  1.000000e-16  1.000000e-16  5.177160e-03  0.000000e+00  -3.157786e+01
1.525300e+01  1.000000e-16  1.000000e-16  5.005035e-03  0.000000e+00  -3.154405e+01
1.525399e+01  1.000000e-16  1.000000e-16  5.183597e-03  0.000000e+00  -3.157911e+01
1.525498e+01  1.000000e-16  1.000000e-16  5.151413e-03  0.000000e+00  -3.157288e+01
1.525600e+01  1.000000e-16  1.000000e-16  5.151413e-03  0.000000e+00  -3.157288e+01
1.525699e+01  1.000000e-16  1.000000e-16  5.135440e-03  0.000000e+00  -3.156977e+01
1.525798e+01  1.000000e-16  1.000000e-16  5.114699e-03  0.000000e+00  -3.156572e+01
1.525900e+01  1.000000e-16  1.000000e-16  5.002175e-03  0.000000e+00  -3.154348e+01
1.525999e+01  1.000000e-16  1.000000e-16  5.144738e-03  0.000000e+00  -3.157158e+01
1.526101e+01  1.000000e-16  1.000000e-16  5.146407e-03  0.000000e+00  -3.157190e+01
1.526200e+01  1.000000e-16  1.000000e-16  5.155227e-03  0.000000e+00  -3.157362e+01
1.526299e+01  1.000000e-16  1.000000e-16  5.127573e-03  0.000000e+00  -3.156824e+01
1.526398e+01  1.000000e-16  1.000000e-16  5.102540e-03  0.000000e+00  -3.156334e+01
1.526500e+01  1.000000e-16  1.000000e-16  5.129480e-03  0.000000e+00  -3.156861e+01
1.526599e+01  1.000000e-16  1.000000e-16  5.272520e-03  0.000000e+00  -3.159611e+01
1.526701e+01  1.000000e-16  1.000000e-16  5.059867e-03  0.000000e+00  -3.155495e+01
1.526803e+01  1.000000e-16  1.000000e-16  5.120421e-03  0.000000e+00  -3.156684e+01
1.526902e+01  1.000000e-16  1.000000e-16  5.227940e-03  0.000000e+00  -3.158762e+01
1.526999e+01  1.000000e-16  1.000000e-16  5.084661e-03  0.000000e+00  -3.155983e+01
1.527101e+01  1.000000e-16  1.000000e-16  5.139493e-03  0.000000e+00  -3.157056e+01
1.527203e+01  1.000000e-16  1.000000e-16  5.287301e-03  0.000000e+00  -3.159891e+01
1.527302e+01  1.000000e-16  1.000000e-16  5.075602e-03  0.000000e+00  -3.155805e+01
1.527402e+01  1.000000e-16  1.000000e-16  5.125427e-03  0.000000e+00  -3.156782e+01
1.527501e+01  1.000000e-16  1.000000e-16  5.130910e-03  0.000000e+00  -3.156889e+01
1.527600e+01  1.000000e-16  1.000000e-16  5.133295e-03  0.000000e+00  -3.156935e+01
1.527699e+01  1.000000e-16  1.000000e-16  5.105640e-03  0.000000e+00  -3.156395e+01
1.527799e+01  1.000000e-16  1.000000e-16  5.105640e-03  0.000000e+00  -3.156395e+01
1.527898e+01  1.000000e-16  1.000000e-16  5.105640e-03  0.000000e+00  -3.156395e+01