File: tmp/SEM[1]/XAFS/20185101/data/csv/test_2int_2scans_Scan(2)2021_10_14T17_36_15.xdi
# XDI/1.0 SED_XAFS/0.9
# Column.1: energy eV
# Column.2: Ionization Chamber (IC) number 1
# Column.3: Ionization Chamber (IC) number 2
# Column.4: Ionization Chamber (IC) number 3
# Column.5: Transmission (log(IC1 current/ IC2 current))
# Column.6: Transmission Reference (log(IC2 current/IC3 current))
# Base.file_name: test_2int_2scans
# Element.edge: K
# Mono.name: Si 311
# Mono.d_spacing: 3.13553
# Beamline.name: XAFS/XRF Beamline (08-BM)
# Beamline.collimation: slits
# Beamline.focusing: no
# Beamline.harmonic_rejection: mirror coating VCM: Si, VFM: Pt
# Facility.name: SESAME Synchrotron-light
# Facility.energy: 2.50 GeV
# Facility.current: -0.0577536
# Facility.xray_source: SESAME Bending Magnet
# Scan.start_time: 2021-10-14T17:36:15
# Scan.end_time: 2021-10-14T17:37:07
# Scan.edge_energy: 99.889
# Scan.number: 2/2 -- intervals: 3, samples: 1
# Detector.IC1: 15cm  N2
# Detector.IC2: 30cm  N2
# Detector.IC3: 15cm  N2
# Element.symbol: Fe
# Sample.stoichiometry: NONE
# Sample.prep: Cu metal foil
# ///
# Experiment comments and remarks: NONE
# User comments and remarks: NONE
#----
#(1)energy   (2)IC1[V]   (3)IC2[V]   (4)IC3[V]   (5)TRANS   (6)TransRef
1.525000e+01  1.000000e-16  1.000000e-16  5.132818e-03  0.000000e+00  -3.156926e+01
1.525093e+01  1.000000e-16  1.000000e-16  5.091337e-03  0.000000e+00  -3.156115e+01
1.525198e+01  1.000000e-16  1.000000e-16  5.153558e-03  0.000000e+00  -3.157329e+01
1.525300e+01  1.000000e-16  1.000000e-16  5.099441e-03  0.000000e+00  -3.156274e+01
1.525399e+01  1.000000e-16  1.000000e-16  5.146645e-03  0.000000e+00  -3.157195e+01
1.525501e+01  1.000000e-16  1.000000e-16  4.986679e-03  0.000000e+00  -3.154038e+01
1.525600e+01  1.000000e-16  1.000000e-16  5.102540e-03  0.000000e+00  -3.156334e+01
1.525699e+01  1.000000e-16  1.000000e-16  5.154035e-03  0.000000e+00  -3.157339e+01
1.525798e+01  1.000000e-16  1.000000e-16  5.169531e-03  0.000000e+00  -3.157639e+01
1.525900e+01  1.000000e-16  1.000000e-16  5.134725e-03  0.000000e+00  -3.156963e+01
1.525999e+01  1.000000e-16  1.000000e-16  5.131149e-03  0.000000e+00  -3.156894e+01
1.526104e+01  1.000000e-16  1.000000e-16  5.126619e-03  0.000000e+00  -3.156805e+01
1.526200e+01  1.000000e-16  1.000000e-16  5.193848e-03  0.000000e+00  -3.158108e+01
1.526299e+01  1.000000e-16  1.000000e-16  5.255832e-03  0.000000e+00  -3.159294e+01
1.526401e+01  1.000000e-16  1.000000e-16  5.171677e-03  0.000000e+00  -3.157680e+01
1.526500e+01  1.000000e-16  1.000000e-16  5.168578e-03  0.000000e+00  -3.157620e+01
1.526602e+01  1.000000e-16  1.000000e-16  5.168578e-03  0.000000e+00  -3.157620e+01
1.526698e+01  1.000000e-16  1.000000e-16  5.175729e-03  0.000000e+00  -3.157759e+01
1.526803e+01  1.000000e-16  1.000000e-16  5.216972e-03  0.000000e+00  -3.158552e+01
1.526902e+01  1.000000e-16  1.000000e-16  5.189796e-03  0.000000e+00  -3.158030e+01
1.527002e+01  1.000000e-16  1.000000e-16  5.276096e-03  0.000000e+00  -3.159679e+01
1.527101e+01  1.000000e-16  1.000000e-16  5.152128e-03  0.000000e+00  -3.157302e+01
1.527200e+01  1.000000e-16  1.000000e-16  5.175014e-03  0.000000e+00  -3.157745e+01
1.527302e+01  1.000000e-16  1.000000e-16  5.123043e-03  0.000000e+00  -3.156735e+01
1.527399e+01  1.000000e-16  1.000000e-16  5.123043e-03  0.000000e+00  -3.156735e+01
1.527498e+01  1.000000e-16  1.000000e-16  5.051523e-03  0.000000e+00  -3.155330e+01
1.527597e+01  1.000000e-16  1.000000e-16  5.075125e-03  0.000000e+00  -3.155796e+01
1.527697e+01  1.000000e-16  1.000000e-16  5.134010e-03  0.000000e+00  -3.156949e+01
1.527802e+01  1.000000e-16  1.000000e-16  5.130910e-03  0.000000e+00  -3.156889e+01
1.527901e+01  1.000000e-16  1.000000e-16  5.307565e-03  0.000000e+00  -3.160274e+01