File: tmp/SEM[1]/XAFS/20185101/data/csv/test_2int_2scans_Scan(2)2021-10-14T17:31:05.xdi
# XDI/1.0 SED_XAFS/0.9
# Column.1: energy eV
# Column.2: Ionization Chamber (IC) number 1
# Column.3: Ionization Chamber (IC) number 2
# Column.4: Ionization Chamber (IC) number 3
# Column.5: Transmission (log(IC1 current/ IC2 current))
# Column.6: Transmission Reference (log(IC2 current/IC3 current))
# Base.file_name: test_2int_2scans
# Element.edge: K
# Mono.name: Si 311
# Mono.d_spacing: 3.13553
# Beamline.name: XAFS/XRF Beamline (08-BM)
# Beamline.collimation: slits
# Beamline.focusing: no
# Beamline.harmonic_rejection: mirror coating VCM: Si, VFM: Pt
# Facility.name: SESAME Synchrotron-light
# Facility.energy: 2.50 GeV
# Facility.current: -0.0565278
# Facility.xray_source: SESAME Bending Magnet
# Scan.start_time: 2021_10_14T17_31_05
# Scan.end_time: 2021-10-14T17:31:57
# Scan.edge_energy: 99.889
# Scan.number: 2/2 -- intervals: 3, samples: 1
# Detector.IC1: 15cm  N2
# Detector.IC2: 30cm  N2
# Detector.IC3: 15cm  N2
# Element.symbol: Fe
# Sample.stoichiometry: NONE
# Sample.prep: Cu metal foil
# ///
# Experiment comments and remarks: NONE
# User comments and remarks: NONE
#----
#(1)energy   (2)IC1[V]   (3)IC2[V]   (4)IC3[V]   (5)TRANS   (6)TransRef
1.525000e+01  1.000000e-16  1.000000e-16  5.292545e-03  0.000000e+00  -3.159991e+01
1.525093e+01  1.000000e-16  1.000000e-16  5.187411e-03  0.000000e+00  -3.157984e+01
1.525198e+01  1.000000e-16  1.000000e-16  5.114461e-03  0.000000e+00  -3.156568e+01
1.525300e+01  1.000000e-16  1.000000e-16  5.114461e-03  0.000000e+00  -3.156568e+01
1.525399e+01  1.000000e-16  1.000000e-16  5.179782e-03  0.000000e+00  -3.157837e+01
1.525504e+01  1.000000e-16  1.000000e-16  5.145452e-03  0.000000e+00  -3.157172e+01
1.525600e+01  1.000000e-16  1.000000e-16  5.193610e-03  0.000000e+00  -3.158104e+01
1.525699e+01  1.000000e-16  1.000000e-16  4.987155e-03  0.000000e+00  -3.154047e+01
1.525798e+01  1.000000e-16  1.000000e-16  5.275142e-03  0.000000e+00  -3.159661e+01
1.525900e+01  1.000000e-16  1.000000e-16  5.196232e-03  0.000000e+00  -3.158154e+01
1.525999e+01  1.000000e-16  1.000000e-16  5.119229e-03  0.000000e+00  -3.156661e+01
1.526101e+01  1.000000e-16  1.000000e-16  5.196947e-03  0.000000e+00  -3.158168e+01
1.526200e+01  1.000000e-16  1.000000e-16  5.144738e-03  0.000000e+00  -3.157158e+01
1.526299e+01  1.000000e-16  1.000000e-16  5.105401e-03  0.000000e+00  -3.156391e+01
1.526398e+01  1.000000e-16  1.000000e-16  5.096104e-03  0.000000e+00  -3.156208e+01
1.526497e+01  1.000000e-16  1.000000e-16  5.226509e-03  0.000000e+00  -3.158735e+01
1.526602e+01  1.000000e-16  1.000000e-16  5.123759e-03  0.000000e+00  -3.156749e+01
1.526704e+01  1.000000e-16  1.000000e-16  5.119706e-03  0.000000e+00  -3.156670e+01
1.526798e+01  1.000000e-16  1.000000e-16  5.206722e-03  0.000000e+00  -3.158356e+01
1.526905e+01  1.000000e-16  1.000000e-16  5.247488e-03  0.000000e+00  -3.159136e+01
1.527002e+01  1.000000e-16  1.000000e-16  5.110885e-03  0.000000e+00  -3.156498e+01
1.527104e+01  1.000000e-16  1.000000e-16  5.198378e-03  0.000000e+00  -3.158195e+01
1.527200e+01  1.000000e-16  1.000000e-16  5.090621e-03  0.000000e+00  -3.156101e+01
1.527302e+01  1.000000e-16  1.000000e-16  5.120898e-03  0.000000e+00  -3.156694e+01
1.527399e+01  1.000000e-16  1.000000e-16  5.068211e-03  0.000000e+00  -3.155659e+01
1.527501e+01  1.000000e-16  1.000000e-16  5.068211e-03  0.000000e+00  -3.155659e+01
1.527600e+01  1.000000e-16  1.000000e-16  5.071310e-03  0.000000e+00  -3.155721e+01
1.527699e+01  1.000000e-16  1.000000e-16  5.272758e-03  0.000000e+00  -3.159616e+01
1.527799e+01  1.000000e-16  1.000000e-16  5.127096e-03  0.000000e+00  -3.156815e+01
1.527898e+01  1.000000e-16  1.000000e-16  5.114699e-03  0.000000e+00  -3.156572e+01