File: tmp/SEM[1]/XAFS/20185101/data/csv/test_2int_2scans_Scan(1)2021_10_14T17_36_15.xdi
# XDI/1.0 SED_XAFS/0.9
# Column.1: energy eV
# Column.2: Ionization Chamber (IC) number 1
# Column.3: Ionization Chamber (IC) number 2
# Column.4: Ionization Chamber (IC) number 3
# Column.5: Transmission (log(IC1 current/ IC2 current))
# Column.6: Transmission Reference (log(IC2 current/IC3 current))
# Base.file_name: test_2int_2scans
# Element.edge: K
# Mono.name: Si 311
# Mono.d_spacing: 3.13553
# Beamline.name: XAFS/XRF Beamline (08-BM)
# Beamline.collimation: slits
# Beamline.focusing: no
# Beamline.harmonic_rejection: mirror coating VCM: Si, VFM: Pt
# Facility.name: SESAME Synchrotron-light
# Facility.energy: 2.50 GeV
# Facility.current: -0.0570103
# Facility.xray_source: SESAME Bending Magnet
# Scan.start_time: 2021-10-14T17:36:15
# Scan.end_time: 2021-10-14T17:36:21
# Scan.edge_energy: 99.889
# Scan.number: 1/2 -- intervals: 3, samples: 1
# Detector.IC1: 15cm  N2
# Detector.IC2: 30cm  N2
# Detector.IC3: 15cm  N2
# Element.symbol: Fe
# Sample.stoichiometry: NONE
# Sample.prep: Cu metal foil
# ///
# Experiment comments and remarks: NONE
# User comments and remarks: NONE
#----
#(1)energy   (2)IC1[V]   (3)IC2[V]   (4)IC3[V]   (5)TRANS   (6)TransRef
1.524992e+01  1.000000e-16  1.000000e-16  5.178829e-03  0.000000e+00  -3.157819e+01
1.525093e+01  1.000000e-16  1.000000e-16  5.250349e-03  0.000000e+00  -3.159190e+01
1.525198e+01  1.000000e-16  1.000000e-16  5.128049e-03  0.000000e+00  -3.156833e+01
1.525300e+01  1.000000e-16  1.000000e-16  5.125666e-03  0.000000e+00  -3.156787e+01
1.525399e+01  1.000000e-16  1.000000e-16  5.167624e-03  0.000000e+00  -3.157602e+01
1.525501e+01  1.000000e-16  1.000000e-16  5.167624e-03  0.000000e+00  -3.157602e+01
1.525600e+01  1.000000e-16  1.000000e-16  5.197186e-03  0.000000e+00  -3.158172e+01
1.525699e+01  1.000000e-16  1.000000e-16  5.193848e-03  0.000000e+00  -3.158108e+01
1.525798e+01  1.000000e-16  1.000000e-16  5.348569e-03  0.000000e+00  -3.161044e+01
1.525903e+01  1.000000e-16  1.000000e-16  5.269898e-03  0.000000e+00  -3.159562e+01
1.525999e+01  1.000000e-16  1.000000e-16  5.177876e-03  0.000000e+00  -3.157800e+01
1.526101e+01  1.000000e-16  1.000000e-16  5.123759e-03  0.000000e+00  -3.156749e+01
1.526200e+01  1.000000e-16  1.000000e-16  5.109931e-03  0.000000e+00  -3.156479e+01
1.526299e+01  1.000000e-16  1.000000e-16  5.163571e-03  0.000000e+00  -3.157523e+01
1.526401e+01  1.000000e-16  1.000000e-16  5.235568e-03  0.000000e+00  -3.158908e+01
1.526497e+01  1.000000e-16  1.000000e-16  5.067019e-03  0.000000e+00  -3.155636e+01
1.526599e+01  1.000000e-16  1.000000e-16  5.255355e-03  0.000000e+00  -3.159285e+01
1.526701e+01  1.000000e-16  1.000000e-16  5.047232e-03  0.000000e+00  -3.155245e+01
1.526800e+01  1.000000e-16  1.000000e-16  5.047232e-03  0.000000e+00  -3.155245e+01
1.526900e+01  1.000000e-16  1.000000e-16  5.099918e-03  0.000000e+00  -3.156283e+01
1.526999e+01  1.000000e-16  1.000000e-16  5.190749e-03  0.000000e+00  -3.158048e+01
1.527101e+01  1.000000e-16  1.000000e-16  5.184789e-03  0.000000e+00  -3.157934e+01
1.527197e+01  1.000000e-16  1.000000e-16  5.144499e-03  0.000000e+00  -3.157153e+01
1.527302e+01  1.000000e-16  1.000000e-16  5.200523e-03  0.000000e+00  -3.158237e+01
1.527399e+01  1.000000e-16  1.000000e-16  5.017194e-03  0.000000e+00  -3.154648e+01
1.527498e+01  1.000000e-16  1.000000e-16  5.108262e-03  0.000000e+00  -3.156447e+01
1.527597e+01  1.000000e-16  1.000000e-16  5.107070e-03  0.000000e+00  -3.156423e+01
1.527702e+01  1.000000e-16  1.000000e-16  5.150459e-03  0.000000e+00  -3.157269e+01
1.527799e+01  1.000000e-16  1.000000e-16  5.106355e-03  0.000000e+00  -3.156409e+01
1.527904e+01  1.000000e-16  1.000000e-16  5.200762e-03  0.000000e+00  -3.158241e+01