File: tmp/SEM[1]/XAFS/20185101/data/csv/Test_Scan(1)2021_10_13T14_40_47.xdi
# XDI/1.0 SED_XAFS/0.9
# Column.1: energy eV
# Column.2: Ionization Chamber (IC) number 1
# Column.3: Ionization Chamber (IC) number 2
# Column.4: Ionization Chamber (IC) number 3
# Column.5: Transmission (log(IC1 current/ IC2 current))
# Column.6: Transmission Reference (log(IC2 current/IC3 current))
# Column.7: KETEK-If
# Column.8: KETEK-FLUOR
# Column.9: KETEK-ROI_0[c/s]
# Column.10: KETEK-ROI_1[c/s]
# Column.11: KETEK-ROI_2[c/s]
# Column.12: KETEK-ROI_3[c/s]
# Column.13: KETEK-ROI_4[c/s]
# Column.14: KETEK-ROI_5[c/s]
# Column.15: KETEK-ROI_6[c/s]
# Column.16: KETEK-ROI_7[c/s]
# Column.17: KETEK-e-time[sec]
# Column.18: KETEK-DEADTIME[%]
# Column.19: KETEK-INT_TIME[sec]
# Column.20: KETEK-OCR
# Column.21: KETEK-ICR
# Base.file_name: Test
# Scan.edge_energy: 8980.0
# Mono.name: Si 111
# Mono.d_spacing: 3.13553
# Beamline.name: 13ID
# Beamline.collimation: slits
# Beamline.focusing: no
# Beamline.harmonic_rejection: rhodium-coated mirror
# Facility.name: SESAME Synchrotron
# Facility.energy: 2.50 GeV
# Facility.xray_source: SESAME Bending Magnet
# Scan.start_time: 2021-10-13T14:40:57
# Detector.IC1: 15cm  N2
# Detector.IC2: 30cm  N2
# Detector.IC3: 15cm  N2
# Sample.name: Cu
# Sample.prep: Cu metal foil
# ///
# Cu foil Room Temperature
# measured at beamline 08-BM XAFS/XRF Beamline
#----
#(1)ENERGY-RBK   (2)IC1[V]   (3)IC2[V]   (4)IC3[V]   (5)TRANS   (6)TransRef   (7)KETEK-If   (8)KETEK-FLUOR   (9)KETEK-ROI_0[c/s]   (10)KETEK-ROI_1[c/s]   (11)KETEK-ROI_2[c/s]   (12)KETEK-ROI_3[c/s]   (13)KETEK-ROI_4[c/s]   (14)KETEK-ROI_5[c/s]   (15)KETEK-ROI_6[c/s]   (16)KETEK-ROI_7[c/s]   (17)KETEK-e-time[sec]   (18)KETEK-DEADTIME[%]   (19)KETEK-INT_TIME[sec]   (20)KETEK-OCR   (21)KETEK-ICR
1.524994e+01 1.000000e-16 1.000000e-16 5.156658e-03 0.000000e+00 -3.157389e+01 0.000000e+00 0.000000e+00 0.000000e+00 0.000000e+00 0.000000e+00 0.000000e+00 0.000000e+00 0.000000e+00 0.000000e+00 0.000000e+00 9.225949e-01 4.431373e-01 9.267014e-01 0.000000e+00 0.000000e+00
1.525093e+01 1.000000e-16 1.000000e-16 5.075125e-03 0.000000e+00 -3.155796e+01 0.000000e+00 0.000000e+00 0.000000e+00 0.000000e+00 0.000000e+00 0.000000e+00 0.000000e+00 0.000000e+00 0.000000e+00 0.000000e+00 1.006569e+00 1.062284e-01 1.007640e+00 0.000000e+00 0.000000e+00
1.525204e+01 1.000000e-16 1.000000e-16 5.306611e-03 0.000000e+00 -3.160256e+01 0.000000e+00 0.000000e+00 0.000000e+00 0.000000e+00 0.000000e+00 0.000000e+00 0.000000e+00 0.000000e+00 0.000000e+00 0.000000e+00 1.006346e+00 1.009844e-01 1.007363e+00 0.000000e+00 0.000000e+00
1.525303e+01 1.000000e-16 1.000000e-16 5.130672e-03 0.000000e+00 -3.156884e+01 0.000000e+00 0.000000e+00 0.000000e+00 0.000000e+00 0.000000e+00 0.000000e+00 0.000000e+00 0.000000e+00 0.000000e+00 0.000000e+00 1.006521e+00 1.165115e-01 1.007695e+00 0.000000e+00 0.000000e+00
1.525402e+01 1.000000e-16 1.000000e-16 5.107070e-03 0.000000e+00 -3.156423e+01 0.000000e+00 0.000000e+00 0.000000e+00 0.000000e+00 0.000000e+00 0.000000e+00 0.000000e+00 0.000000e+00 0.000000e+00 0.000000e+00 1.006405e+00 1.178255e-01 1.007592e+00 0.000000e+00 0.000000e+00
1.525501e+01 1.000000e-16 1.000000e-16 4.960692e-03 0.000000e+00 -3.153515e+01 0.000000e+00 0.000000e+00 0.000000e+00 0.000000e+00 0.000000e+00 0.000000e+00 0.000000e+00 0.000000e+00 0.000000e+00 0.000000e+00 1.006310e+00 1.176144e-01 1.007495e+00 0.000000e+00 1.987458e+00
1.525603e+01 1.000000e-16 1.000000e-16 5.194801e-03 0.000000e+00 -3.158126e+01 0.000000e+00 0.000000e+00 0.000000e+00 0.000000e+00 0.000000e+00 0.000000e+00 0.000000e+00 0.000000e+00 0.000000e+00 0.000000e+00 1.006480e+00 9.979694e-02 1.007486e+00 0.000000e+00 0.000000e+00
1.525699e+01 1.000000e-16 1.000000e-16 5.131626e-03 0.000000e+00 -3.156903e+01 0.000000e+00 0.000000e+00 0.000000e+00 0.000000e+00 0.000000e+00 0.000000e+00 0.000000e+00 0.000000e+00 0.000000e+00 0.000000e+00 1.006458e+00 1.162332e-01 1.007629e+00 0.000000e+00 0.000000e+00
1.525801e+01 1.000000e-16 1.000000e-16 5.142353e-03 0.000000e+00 -3.157112e+01 0.000000e+00 0.000000e+00 0.000000e+00 0.000000e+00 0.000000e+00 0.000000e+00 0.000000e+00 0.000000e+00 0.000000e+00 0.000000e+00 1.006410e+00 1.028184e-01 1.007446e+00 0.000000e+00 0.000000e+00
1.525903e+01 1.000000e-16 1.000000e-16 5.113269e-03 0.000000e+00 -3.156545e+01 0.000000e+00 0.000000e+00 0.000000e+00 0.000000e+00 0.000000e+00 0.000000e+00 0.000000e+00 0.000000e+00 0.000000e+00 0.000000e+00 1.006648e+00 1.045389e-01 1.007701e+00 0.000000e+00 0.000000e+00
1.526002e+01 1.000000e-16 1.000000e-16 5.104448e-03 0.000000e+00 -3.156372e+01 0.000000e+00 0.000000e+00 0.000000e+00 0.000000e+00 0.000000e+00 0.000000e+00 0.000000e+00 0.000000e+00 0.000000e+00 0.000000e+00 1.006323e+00 1.163122e-01 1.007495e+00 0.000000e+00 0.000000e+00
1.526101e+01 1.000000e-16 1.000000e-16 5.149506e-03 0.000000e+00 -3.157251e+01 0.000000e+00 0.000000e+00 0.000000e+00 0.000000e+00 0.000000e+00 0.000000e+00 0.000000e+00 0.000000e+00 0.000000e+00 0.000000e+00 1.006448e+00 1.015771e-01 1.007471e+00 0.000000e+00 0.000000e+00
1.526203e+01 1.000000e-16 1.000000e-16 5.049139e-03 0.000000e+00 -3.155282e+01 0.000000e+00 0.000000e+00 0.000000e+00 0.000000e+00 0.000000e+00 0.000000e+00 0.000000e+00 0.000000e+00 0.000000e+00 0.000000e+00 1.006641e+00 1.166562e-01 1.007816e+00 0.000000e+00 0.000000e+00
1.526299e+01 1.000000e-16 1.000000e-16 5.072026e-03 0.000000e+00 -3.155735e+01 0.000000e+00 0.000000e+00 0.000000e+00 0.000000e+00 0.000000e+00 0.000000e+00 0.000000e+00 0.000000e+00 0.000000e+00 0.000000e+00 1.006610e+00 9.692861e-02 1.007587e+00 0.000000e+00 0.000000e+00
1.526401e+01 1.000000e-16 1.000000e-16 5.161426e-03 0.000000e+00 -3.157482e+01 0.000000e+00 0.000000e+00 0.000000e+00 0.000000e+00 0.000000e+00 0.000000e+00 0.000000e+00 0.000000e+00 0.000000e+00 0.000000e+00 1.006367e+00 1.177030e-01 1.007553e+00 0.000000e+00 0.000000e+00
1.526503e+01 1.000000e-16 1.000000e-16 5.176445e-03 0.000000e+00 -3.157772e+01 0.000000e+00 0.000000e+00 0.000000e+00 0.000000e+00 0.000000e+00 0.000000e+00 0.000000e+00 0.000000e+00 0.000000e+00 0.000000e+00 1.006364e+00 1.187820e-01 1.007560e+00 0.000000e+00 0.000000e+00
1.526602e+01 1.000000e-16 1.000000e-16 5.151412e-03 0.000000e+00 -3.157288e+01 0.000000e+00 0.000000e+00 0.000000e+00 0.000000e+00 0.000000e+00 0.000000e+00 0.000000e+00 0.000000e+00 0.000000e+00 0.000000e+00 1.006152e+00 1.185848e-01 1.007346e+00 0.000000e+00 0.000000e+00
1.526707e+01 1.000000e-16 1.000000e-16 5.247726e-03 0.000000e+00 -3.159140e+01 0.000000e+00 0.000000e+00 0.000000e+00 0.000000e+00 0.000000e+00 0.000000e+00 0.000000e+00 0.000000e+00 0.000000e+00 0.000000e+00 1.006157e+00 1.045581e-01 1.007210e+00 0.000000e+00 0.000000e+00
1.526800e+01 1.000000e-16 1.000000e-16 5.113030e-03 0.000000e+00 -3.156540e+01 0.000000e+00 0.000000e+00 0.000000e+00 0.000000e+00 0.000000e+00 0.000000e+00 0.000000e+00 0.000000e+00 0.000000e+00 0.000000e+00 1.006263e+00 9.556548e-02 1.007226e+00 0.000000e+00 0.000000e+00
1.526905e+01 1.000000e-16 1.000000e-16 5.135678e-03 0.000000e+00 -3.156982e+01 0.000000e+00 0.000000e+00 0.000000e+00 0.000000e+00 0.000000e+00 0.000000e+00 0.000000e+00 0.000000e+00 0.000000e+00 0.000000e+00 1.006285e+00 1.174904e-01 1.007469e+00 0.000000e+00 0.000000e+00