File: tmp/SEM[1]/XAFS/20185101/data/csv/Test_Scan(2)2021_10_13T23_21_23.xdi
# XDI/1.0 SED_XAFS/0.9
# Column.1: energy eV
# Column.2: Ionization Chamber (IC) number 1
# Column.3: Ionization Chamber (IC) number 2
# Column.4: Ionization Chamber (IC) number 3
# Column.5: Transmission (log(IC1 current/ IC2 current))
# Column.6: Transmission Reference (log(IC2 current/IC3 current))
# Base.file_name: Test
# Scan.edge_energy: 8980.0
# Mono.name: Si 111
# Mono.d_spacing: 3.13553
# Beamline.name: 13ID
# Beamline.collimation: slits
# Beamline.focusing: no
# Beamline.harmonic_rejection: rhodium-coated mirror
# Facility.name: SESAME Synchrotron
# Facility.energy: 2.50 GeV
# Facility.xray_source: SESAME Bending Magnet
# Scan.start_time: 2021-10-13T23:23:07
# Detector.IC1: 15cm  N2
# Detector.IC2: 30cm  N2
# Detector.IC3: 15cm  N2
# Sample.name: Cu
# Sample.prep: Cu metal foil
# ///
# Cu foil Room Temperature
# measured at beamline 08-BM XAFS/XRF Beamline
#----
#(1)ENERGY-RBK   (2)IC1[V]   (3)IC2[V]   (4)IC3[V]   (5)TRANS   (6)TransRef
1.525000e+01   1.000000e-16   1.000000e-16   5.174538e-03   0.000000e+00   -3.157736e+01
1.525091e+01   1.000000e-16   1.000000e-16   5.064874e-03   0.000000e+00   -3.155594e+01
1.525201e+01   1.000000e-16   1.000000e-16   4.861518e-03   0.000000e+00   -3.151496e+01
1.525300e+01   1.000000e-16   1.000000e-16   5.028876e-03   0.000000e+00   -3.154880e+01
1.525399e+01   1.000000e-16   1.000000e-16   4.998598e-03   0.000000e+00   -3.154276e+01
1.525498e+01   1.000000e-16   1.000000e-16   4.999790e-03   0.000000e+00   -3.154300e+01
1.525600e+01   1.000000e-16   1.000000e-16   5.091575e-03   0.000000e+00   -3.156119e+01
1.525699e+01   1.000000e-16   1.000000e-16   5.109931e-03   0.000000e+00   -3.156479e+01
1.525798e+01   1.000000e-16   1.000000e-16   5.078462e-03   0.000000e+00   -3.155861e+01
1.525900e+01   1.000000e-16   1.000000e-16   5.059867e-03   0.000000e+00   -3.155495e+01
1.526002e+01   1.000000e-16   1.000000e-16   5.054146e-03   0.000000e+00   -3.155382e+01
1.526503e+01   1.000000e-16   1.000000e-16   5.077270e-03   0.000000e+00   -3.155838e+01