File: tmp/SEM[1]/XAFS/20185101/data/csv/Test settling time _Scan(1)2021_10_18T23_37_03.xdi
# XDI/1.0 SED_XAFS/0.9
# Column.1: energy eV
# Column.2: Ionization Chamber (IC) number 1
# Column.3: Ionization Chamber (IC) number 2
# Column.4: Ionization Chamber (IC) number 3
# Column.5: Transmission (log(IC1 current/ IC2 current))
# Column.6: Transmission Reference (log(IC2 current/IC3 current))
# Column.7: KETEK-If
# Column.8: KETEK-FLUOR
# Column.9: KETEK-ROI_0[c/s]
# Column.10: KETEK-ROI_1[c/s]
# Column.11: KETEK-ROI_2[c/s]
# Column.12: KETEK-e-time[sec]
# Column.13: KETEK-DEADTIME[%]
# Column.14: KETEK-INT_TIME[sec]
# Column.15: KETEK-OCR
# Column.16: KETEK-ICR
# Base.file_name: Test settling time
# Element.edge: K
# Mono.name: Si 111
# Mono.d_spacing: 3.13553
# Mono.settling_time: 1.2
# Beamline.name: XAFS/XRF Beamline (08-BM)
# Beamline.collimation: slits
# Beamline.focusing: no
# Beamline.harmonic_rejection: mirror coating VCM: Si, VFM: Si
# Facility.name: SESAME Synchrotron-light
# Facility.energy: 2.50 GeV
# Facility.current: 286.092
# Facility.xray_source: SESAME Bending Magnet
# Scan.start_time: 2021-10-18T23:37:03
# Scan.end_time: 2021-10-18T23:37:13
# Scan.edge_energy: 25000
# Scan.number: 1/1 -- intervals: 1, samples: 1
# Detector.IC1: 15cm  12
# Detector.IC2: 30cm  2
# Detector.IC3: 15cm  3
# Element.symbol: Cu
# Sample.stoichiometry: NONE
# Sample.prep: fsdf
# ///
# Experiment comments and remarks: NONE
# User comments and remarks: NONE
#----
#(1)energy   (2)IC1[V]   (3)IC2[V]   (4)IC3[V]   (5)TRANS   (6)TransRef   (7)KETEK-If   (8)KETEK-FLUOR   (9)KETEK-ROI_0[c/s]   (10)KETEK-ROI_1[c/s]   (11)KETEK-ROI_2[c/s]   (12)KETEK-e-time[sec]   (13)KETEK-DEADTIME[%]   (14)KETEK-INT_TIME[sec]   (15)KETEK-OCR   (16)KETEK-ICR
1.524994e+01  1.000000e-16  1.000000e-16  5.144976e-03  0.000000e+00  -3.157163e+01  0.000000e+00  0.000000e+00  0.000000e+00  0.000000e+00  0.000000e+00  4.760829e-01  4.377300e-01  4.781760e-01  0.000000e+00  0.000000e+00
1.525093e+01  1.000000e-16  1.000000e-16  5.022677e-03  0.000000e+00  -3.154757e+01  0.000000e+00  0.000000e+00  0.000000e+00  0.000000e+00  0.000000e+00  5.031933e-01  1.108483e-01  5.037517e-01  0.000000e+00  0.000000e+00
1.525201e+01  1.000000e-16  1.000000e-16  5.041511e-03  0.000000e+00  -3.155131e+01  0.000000e+00  0.000000e+00  0.000000e+00  0.000000e+00  0.000000e+00  5.032794e-01  1.120982e-01  5.038442e-01  0.000000e+00  0.000000e+00
1.525300e+01  1.000000e-16  1.000000e-16  4.990731e-03  0.000000e+00  -3.154119e+01  0.000000e+00  0.000000e+00  0.000000e+00  0.000000e+00  0.000000e+00  5.032070e-01  1.119239e-01  5.037709e-01  0.000000e+00  0.000000e+00
1.525399e+01  1.000000e-16  1.000000e-16  5.148313e-03  0.000000e+00  -3.157228e+01  0.000000e+00  0.000000e+00  0.000000e+00  0.000000e+00  0.000000e+00  5.032006e-01  1.123060e-01  5.037664e-01  0.000000e+00  0.000000e+00
1.525501e+01  1.000000e-16  1.000000e-16  5.022916e-03  0.000000e+00  -3.154762e+01  0.000000e+00  0.000000e+00  0.000000e+00  0.000000e+00  0.000000e+00  5.029238e-01  1.119869e-01  5.034877e-01  0.000000e+00  0.000000e+00
1.525600e+01  1.000000e-16  1.000000e-16  5.181451e-03  0.000000e+00  -3.157869e+01  0.000000e+00  0.000000e+00  0.000000e+00  0.000000e+00  0.000000e+00  5.032451e-01  1.107100e-01  5.038029e-01  0.000000e+00  0.000000e+00
1.525699e+01  1.000000e-16  1.000000e-16  5.067973e-03  0.000000e+00  -3.155655e+01  0.000000e+00  0.000000e+00  0.000000e+00  0.000000e+00  0.000000e+00  5.028470e-01  1.120039e-01  5.034109e-01  0.000000e+00  0.000000e+00
1.525798e+01  1.000000e-16  1.000000e-16  4.987155e-03  0.000000e+00  -3.154047e+01  0.000000e+00  0.000000e+00  0.000000e+00  0.000000e+00  0.000000e+00  5.031475e-01  1.120006e-01  5.037117e-01  0.000000e+00  0.000000e+00
1.525900e+01  1.000000e-16  1.000000e-16  5.165002e-03  0.000000e+00  -3.157551e+01  0.000000e+00  0.000000e+00  0.000000e+00  0.000000e+00  0.000000e+00  5.028291e-01  1.110555e-01  5.033882e-01  0.000000e+00  0.000000e+00