File: tmp/SEM[1]/XAFS/20185101/data/csv/Test_Scan(1)2021_10_13T14_48_18.xdi
# XDI/1.0 SED_XAFS/0.9
# Column.1: energy eV
# Column.2: Ionization Chamber (IC) number 1
# Column.3: Ionization Chamber (IC) number 2
# Column.4: Ionization Chamber (IC) number 3
# Column.5: Transmission (log(IC1 current/ IC2 current))
# Column.6: Transmission Reference (log(IC2 current/IC3 current))
# Column.7: KETEK-If
# Column.8: KETEK-FLUOR
# Column.9: KETEK-ROI_0[c/s]
# Column.10: KETEK-ROI_1[c/s]
# Column.11: KETEK-ROI_2[c/s]
# Column.12: KETEK-ROI_3[c/s]
# Column.13: KETEK-ROI_4[c/s]
# Column.14: KETEK-ROI_5[c/s]
# Column.15: KETEK-ROI_6[c/s]
# Column.16: KETEK-ROI_7[c/s]
# Column.17: KETEK-e-time[sec]
# Column.18: KETEK-DEADTIME[%]
# Column.19: KETEK-INT_TIME[sec]
# Column.20: KETEK-OCR
# Column.21: KETEK-ICR
# Base.file_name: Test
# Scan.edge_energy: 8980.0
# Mono.name: Si 111
# Mono.d_spacing: 3.13553
# Beamline.name: 13ID
# Beamline.collimation: slits
# Beamline.focusing: no
# Beamline.harmonic_rejection: rhodium-coated mirror
# Facility.name: SESAME Synchrotron
# Facility.energy: 2.50 GeV
# Facility.xray_source: SESAME Bending Magnet
# Scan.start_time: 2021-10-13T14:51:23
# Detector.IC1: 15cm  N2
# Detector.IC2: 30cm  N2
# Detector.IC3: 15cm  N2
# Sample.name: Cu
# Sample.prep: Cu metal foil
# ///
# Cu foil Room Temperature
# measured at beamline 08-BM XAFS/XRF Beamline
#----
#(1)ENERGY-RBK   (2)IC1[V]   (3)IC2[V]   (4)IC3[V]   (5)TRANS   (6)TransRef   (7)KETEK-If   (8)KETEK-FLUOR   (9)KETEK-ROI_0[c/s]   (10)KETEK-ROI_1[c/s]   (11)KETEK-ROI_2[c/s]   (12)KETEK-ROI_3[c/s]   (13)KETEK-ROI_4[c/s]   (14)KETEK-ROI_5[c/s]   (15)KETEK-ROI_6[c/s]   (16)KETEK-ROI_7[c/s]   (17)KETEK-e-time[sec]   (18)KETEK-DEADTIME[%]   (19)KETEK-INT_TIME[sec]   (20)KETEK-OCR   (21)KETEK-ICR
1.524992e+01 1.000000e-16 1.000000e-16 5.173346e-03 0.000000e+00 -3.157713e+01 0.000000e+00 0.000000e+00 0.000000e+00 0.000000e+00 0.000000e+00 0.000000e+00 0.000000e+00 0.000000e+00 0.000000e+00 0.000000e+00 4.404589e-01 4.579947e-01 4.424854e-01 0.000000e+00 0.000000e+00
1.525096e+01 1.000000e-16 1.000000e-16 5.098727e-03 0.000000e+00 -3.156260e+01 0.000000e+00 0.000000e+00 0.000000e+00 0.000000e+00 0.000000e+00 0.000000e+00 0.000000e+00 0.000000e+00 0.000000e+00 0.000000e+00 5.029069e-01 1.010061e-01 5.034154e-01 0.000000e+00 0.000000e+00
1.525204e+01 1.000000e-16 1.000000e-16 5.055576e-03 0.000000e+00 -3.155410e+01 0.000000e+00 0.000000e+00 0.000000e+00 0.000000e+00 0.000000e+00 0.000000e+00 0.000000e+00 0.000000e+00 0.000000e+00 0.000000e+00 5.030566e-01 1.172884e-01 5.036474e-01 0.000000e+00 0.000000e+00
1.525300e+01 1.000000e-16 1.000000e-16 5.105640e-03 0.000000e+00 -3.156395e+01 0.000000e+00 0.000000e+00 0.000000e+00 0.000000e+00 0.000000e+00 0.000000e+00 0.000000e+00 0.000000e+00 0.000000e+00 0.000000e+00 5.029587e-01 1.164860e-01 5.035453e-01 0.000000e+00 0.000000e+00
1.525402e+01 1.000000e-16 1.000000e-16 5.224601e-03 0.000000e+00 -3.158698e+01 0.000000e+00 0.000000e+00 0.000000e+00 0.000000e+00 0.000000e+00 0.000000e+00 0.000000e+00 0.000000e+00 0.000000e+00 0.000000e+00 5.032115e-01 9.548683e-02 5.036925e-01 0.000000e+00 0.000000e+00
1.525504e+01 1.000000e-16 1.000000e-16 5.159996e-03 0.000000e+00 -3.157454e+01 0.000000e+00 0.000000e+00 0.000000e+00 0.000000e+00 0.000000e+00 0.000000e+00 0.000000e+00 0.000000e+00 0.000000e+00 0.000000e+00 5.029613e-01 1.181993e-01 5.035565e-01 0.000000e+00 0.000000e+00
1.525603e+01 1.000000e-16 1.000000e-16 5.188603e-03 0.000000e+00 -3.158007e+01 0.000000e+00 0.000000e+00 0.000000e+00 0.000000e+00 0.000000e+00 0.000000e+00 0.000000e+00 0.000000e+00 0.000000e+00 0.000000e+00 5.029875e-01 1.013073e-01 5.034976e-01 0.000000e+00 0.000000e+00
1.525699e+01 1.000000e-16 1.000000e-16 5.199808e-03 0.000000e+00 -3.158223e+01 0.000000e+00 0.000000e+00 0.000000e+00 0.000000e+00 0.000000e+00 0.000000e+00 0.000000e+00 0.000000e+00 0.000000e+00 0.000000e+00 5.030013e-01 1.185072e-01 5.035981e-01 0.000000e+00 0.000000e+00
1.525803e+01 1.000000e-16 1.000000e-16 5.099680e-03 0.000000e+00 -3.156278e+01 0.000000e+00 0.000000e+00 0.000000e+00 0.000000e+00 0.000000e+00 0.000000e+00 0.000000e+00 0.000000e+00 0.000000e+00 0.000000e+00 5.031027e-01 1.170239e-01 5.036922e-01 0.000000e+00 0.000000e+00
1.525900e+01 1.000000e-16 1.000000e-16 5.083469e-03 0.000000e+00 -3.155960e+01 0.000000e+00 0.000000e+00 0.000000e+00 0.000000e+00 0.000000e+00 0.000000e+00 0.000000e+00 0.000000e+00 0.000000e+00 0.000000e+00 5.032147e-01 1.154752e-01 5.037965e-01 0.000000e+00 0.000000e+00
1.525999e+01 1.000000e-16 1.000000e-16 5.132818e-03 0.000000e+00 -3.156926e+01 0.000000e+00 0.000000e+00 0.000000e+00 0.000000e+00 0.000000e+00 0.000000e+00 0.000000e+00 0.000000e+00 0.000000e+00 0.000000e+00 5.032032e-01 1.162392e-01 5.037888e-01 0.000000e+00 0.000000e+00
1.526101e+01 1.000000e-16 1.000000e-16 5.221264e-03 0.000000e+00 -3.158635e+01 0.000000e+00 0.000000e+00 0.000000e+00 0.000000e+00 0.000000e+00 0.000000e+00 0.000000e+00 0.000000e+00 0.000000e+00 0.000000e+00 5.030080e-01 1.185056e-01 5.036048e-01 0.000000e+00 0.000000e+00
1.526203e+01 1.000000e-16 1.000000e-16 5.097773e-03 0.000000e+00 -3.156241e+01 0.000000e+00 0.000000e+00 0.000000e+00 0.000000e+00 0.000000e+00 0.000000e+00 0.000000e+00 0.000000e+00 0.000000e+00 0.000000e+00 5.032746e-01 1.161593e-01 5.038598e-01 0.000000e+00 0.000000e+00
1.526299e+01 1.000000e-16 1.000000e-16 5.110408e-03 0.000000e+00 -3.156489e+01 0.000000e+00 0.000000e+00 0.000000e+00 0.000000e+00 0.000000e+00 0.000000e+00 0.000000e+00 0.000000e+00 0.000000e+00 0.000000e+00 5.030381e-01 9.932910e-02 5.035382e-01 0.000000e+00 0.000000e+00
1.526404e+01 1.000000e-16 1.000000e-16 5.122567e-03 0.000000e+00 -3.156726e+01 0.000000e+00 0.000000e+00 0.000000e+00 0.000000e+00 0.000000e+00 0.000000e+00 0.000000e+00 0.000000e+00 0.000000e+00 0.000000e+00 5.029523e-01 1.163606e-01 5.035382e-01 0.000000e+00 0.000000e+00
1.526503e+01 1.000000e-16 1.000000e-16 5.085615e-03 0.000000e+00 -3.156002e+01 0.000000e+00 0.000000e+00 0.000000e+00 0.000000e+00 0.000000e+00 0.000000e+00 0.000000e+00 0.000000e+00 0.000000e+00 0.000000e+00 5.028096e-01 1.175365e-01 5.034013e-01 0.000000e+00 0.000000e+00
1.526602e+01 1.000000e-16 1.000000e-16 5.150936e-03 0.000000e+00 -3.157278e+01 0.000000e+00 0.000000e+00 0.000000e+00 0.000000e+00 0.000000e+00 0.000000e+00 0.000000e+00 0.000000e+00 0.000000e+00 0.000000e+00 5.032326e-01 1.152173e-01 5.038131e-01 0.000000e+00 0.000000e+00
1.526701e+01 1.000000e-16 1.000000e-16 5.148313e-03 0.000000e+00 -3.157228e+01 0.000000e+00 0.000000e+00 0.000000e+00 0.000000e+00 0.000000e+00 0.000000e+00 0.000000e+00 0.000000e+00 0.000000e+00 0.000000e+00 5.028349e-01 1.162607e-01 5.034202e-01 0.000000e+00 0.000000e+00
1.526800e+01 1.000000e-16 1.000000e-16 5.062728e-03 0.000000e+00 -3.155551e+01 0.000000e+00 0.000000e+00 0.000000e+00 0.000000e+00 0.000000e+00 0.000000e+00 0.000000e+00 0.000000e+00 0.000000e+00 0.000000e+00 5.031898e-01 1.006955e-01 5.036970e-01 0.000000e+00 0.000000e+00
1.526905e+01 1.000000e-16 1.000000e-16 5.158803e-03 0.000000e+00 -3.157431e+01 0.000000e+00 0.000000e+00 0.000000e+00 0.000000e+00 0.000000e+00 0.000000e+00 0.000000e+00 0.000000e+00 0.000000e+00 0.000000e+00 5.030170e-01 1.153936e-01 5.035981e-01 0.000000e+00 0.000000e+00