File: tmp/SEM[1]/XAFS/20185101/data/csv/Test settling time _Scan(1)2021_10_18T12_21_45.xdi
# XDI/1.0 SED_XAFS/0.9
# Column.1: energy eV
# Column.2: Ionization Chamber (IC) number 1
# Column.3: Ionization Chamber (IC) number 2
# Column.4: Ionization Chamber (IC) number 3
# Column.5: Transmission (log(IC1 current/ IC2 current))
# Column.6: Transmission Reference (log(IC2 current/IC3 current))
# Column.7: KETEK-If
# Column.8: KETEK-FLUOR
# Column.9: KETEK-ROI_0[c/s]
# Column.10: KETEK-ROI_1[c/s]
# Column.11: KETEK-ROI_2[c/s]
# Column.12: KETEK-e-time[sec]
# Column.13: KETEK-DEADTIME[%]
# Column.14: KETEK-INT_TIME[sec]
# Column.15: KETEK-OCR
# Column.16: KETEK-ICR
# Base.file_name: Test settling time
# Element.edge: K
# Mono.name: Si 111
# Mono.d_spacing: 3.13553
# Mono.settling_time: 5.0
# Beamline.name: XAFS/XRF Beamline (08-BM)
# Beamline.collimation: slits
# Beamline.focusing: no
# Beamline.harmonic_rejection: mirror coating VCM: Si, VFM: Si
# Facility.name: SESAME Synchrotron-light
# Facility.energy: 2.50 GeV
# Facility.current: 300.155
# Facility.xray_source: SESAME Bending Magnet
# Scan.start_time: 2021-10-18T12:21:45
# Scan.end_time: 2021-10-18T12:21:59
# Scan.edge_energy: 25000
# Scan.number: 1/1 -- intervals: 1, samples: 1
# Detector.IC1: 15cm  12
# Detector.IC2: 30cm  2
# Detector.IC3: 15cm  3
# Element.symbol: Cu
# Sample.stoichiometry: NONE
# Sample.prep: fsdf
# ///
# Experiment comments and remarks: NONE
# User comments and remarks: NONE
#----
#(1)energy   (2)IC1[V]   (3)IC2[V]   (4)IC3[V]   (5)TRANS   (6)TransRef   (7)KETEK-If   (8)KETEK-FLUOR   (9)KETEK-ROI_0[c/s]   (10)KETEK-ROI_1[c/s]   (11)KETEK-ROI_2[c/s]   (12)KETEK-e-time[sec]   (13)KETEK-DEADTIME[%]   (14)KETEK-INT_TIME[sec]   (15)KETEK-OCR   (16)KETEK-ICR
1.524992e+01  1.000000e-16  1.000000e-16  5.070357e-03  0.000000e+00  -3.155702e+01  0.000000e+00  0.000000e+00  0.000000e+00  0.000000e+00  0.000000e+00  4.744182e-01  4.405295e-01  4.765174e-01  0.000000e+00  0.000000e+00
1.525099e+01  1.000000e-16  1.000000e-16  5.070595e-03  0.000000e+00  -3.155706e+01  0.000000e+00  0.000000e+00  0.000000e+00  0.000000e+00  0.000000e+00  5.031501e-01  1.126346e-01  5.037174e-01  0.000000e+00  0.000000e+00
1.525204e+01  1.000000e-16  1.000000e-16  5.118990e-03  0.000000e+00  -3.156656e+01  0.000000e+00  0.000000e+00  0.000000e+00  0.000000e+00  0.000000e+00  5.030022e-01  9.647896e-02  5.034880e-01  0.000000e+00  0.000000e+00
1.525300e+01  1.000000e-16  1.000000e-16  4.998837e-03  0.000000e+00  -3.154281e+01  0.000000e+00  0.000000e+00  0.000000e+00  0.000000e+00  0.000000e+00  5.032422e-01  1.110278e-01  5.038016e-01  0.000000e+00  0.000000e+00
1.525402e+01  1.000000e-16  1.000000e-16  5.167624e-03  0.000000e+00  -3.157602e+01  0.000000e+00  0.000000e+00  0.000000e+00  0.000000e+00  0.000000e+00  5.030304e-01  1.112650e-01  5.035907e-01  0.000000e+00  0.000000e+00
1.525504e+01  1.000000e-16  1.000000e-16  5.187888e-03  0.000000e+00  -3.157993e+01  0.000000e+00  0.000000e+00  0.000000e+00  0.000000e+00  0.000000e+00  5.028979e-01  9.516526e-02  5.033770e-01  0.000000e+00  0.000000e+00
1.525600e+01  1.000000e-16  1.000000e-16  5.061536e-03  0.000000e+00  -3.155528e+01  0.000000e+00  0.000000e+00  0.000000e+00  0.000000e+00  0.000000e+00  5.030022e-01  1.118425e-01  5.035654e-01  0.000000e+00  0.000000e+00
1.525702e+01  1.000000e-16  1.000000e-16  5.022438e-03  0.000000e+00  -3.154752e+01  0.000000e+00  0.000000e+00  0.000000e+00  0.000000e+00  0.000000e+00  5.030432e-01  1.112621e-01  5.036035e-01  0.000000e+00  0.000000e+00
1.525806e+01  1.000000e-16  1.000000e-16  4.997168e-03  0.000000e+00  -3.154248e+01  0.000000e+00  0.000000e+00  0.000000e+00  0.000000e+00  0.000000e+00  5.030042e-01  1.114612e-01  5.035654e-01  0.000000e+00  0.000000e+00
1.525900e+01  1.000000e-16  1.000000e-16  4.986440e-03  0.000000e+00  -3.154033e+01  0.000000e+00  0.000000e+00  0.000000e+00  0.000000e+00  0.000000e+00  5.030938e-01  9.633446e-02  5.035789e-01  0.000000e+00  0.000000e+00