File: tmp/SEM[1]/XAFS/20185101/data/csv/Test_Scan(1)2021_10_13T23_17_24.xdi
# XDI/1.0 SED_XAFS/0.9
# Column.1: energy eV
# Column.2: Ionization Chamber (IC) number 1
# Column.3: Ionization Chamber (IC) number 2
# Column.4: Ionization Chamber (IC) number 3
# Column.5: Transmission (log(IC1 current/ IC2 current))
# Column.6: Transmission Reference (log(IC2 current/IC3 current))
# Base.file_name: Test
# Scan.edge_energy: 8980.0
# Mono.name: Si 111
# Mono.d_spacing: 3.13553
# Beamline.name: 13ID
# Beamline.collimation: slits
# Beamline.focusing: no
# Beamline.harmonic_rejection: rhodium-coated mirror
# Facility.name: SESAME Synchrotron
# Facility.energy: 2.50 GeV
# Facility.xray_source: SESAME Bending Magnet
# Scan.start_time: 2021-10-13T23:18:03
# Detector.IC1: 15cm  N2
# Detector.IC2: 30cm  N2
# Detector.IC3: 15cm  N2
# Sample.name: Cu
# Sample.prep: Cu metal foil
# ///
# Cu foil Room Temperature
# measured at beamline 08-BM XAFS/XRF Beamline
#----
#(1)ENERGY-RBK   (2)IC1[V]   (3)IC2[V]   (4)IC3[V]   (5)TRANS   (6)TransRef
1.525006e+01   1.000000e-16   1.000000e-16   5.097773e-03   0.000000e+00   -3.156241e+01
1.525093e+01   1.000000e-16   1.000000e-16   4.944243e-03   0.000000e+00   -3.153183e+01
1.525201e+01   1.000000e-16   1.000000e-16   5.165717e-03   0.000000e+00   -3.157565e+01
1.525300e+01   1.000000e-16   1.000000e-16   5.050808e-03   0.000000e+00   -3.155315e+01
1.525399e+01   1.000000e-16   1.000000e-16   4.984294e-03   0.000000e+00   -3.153990e+01
1.525501e+01   1.000000e-16   1.000000e-16   5.195517e-03   0.000000e+00   -3.158140e+01
1.525600e+01   1.000000e-16   1.000000e-16   5.102541e-03   0.000000e+00   -3.156334e+01
1.525699e+01   1.000000e-16   1.000000e-16   4.969990e-03   0.000000e+00   -3.153702e+01
1.525803e+01   1.000000e-16   1.000000e-16   5.041749e-03   0.000000e+00   -3.155136e+01
1.525900e+01   1.000000e-16   1.000000e-16   5.049377e-03   0.000000e+00   -3.155287e+01
1.525999e+01   1.000000e-16   1.000000e-16   5.024584e-03   0.000000e+00   -3.154795e+01
1.526098e+01   1.000000e-16   1.000000e-16   5.057483e-03   0.000000e+00   -3.155448e+01
1.526200e+01   1.000000e-16   1.000000e-16   5.017432e-03   0.000000e+00   -3.154652e+01
1.526299e+01   1.000000e-16   1.000000e-16   4.958309e-03   0.000000e+00   -3.153467e+01
1.526398e+01   1.000000e-16   1.000000e-16   4.975950e-03   0.000000e+00   -3.153822e+01
1.526500e+01   1.000000e-16   1.000000e-16   5.084184e-03   0.000000e+00   -3.155974e+01
1.526599e+01   1.000000e-16   1.000000e-16   5.067973e-03   0.000000e+00   -3.155655e+01
1.526698e+01   1.000000e-16   1.000000e-16   5.067973e-03   0.000000e+00   -3.155655e+01
1.526800e+01   1.000000e-16   1.000000e-16   5.113031e-03   0.000000e+00   -3.156540e+01
1.526900e+01   1.000000e-16   1.000000e-16   5.188126e-03   0.000000e+00   -3.157998e+01