File: tmp/SEM[1]/XAFS/20185101/data/csv/Test with logging _Scan(1)2021_10_18T22_04_58.xdi
# XDI/1.0 SED_XAFS/0.9
# Column.1: energy eV
# Column.2: Ionization Chamber (IC) number 1
# Column.3: Ionization Chamber (IC) number 2
# Column.4: Ionization Chamber (IC) number 3
# Column.5: Transmission (log(IC1 current/ IC2 current))
# Column.6: Transmission Reference (log(IC2 current/IC3 current))
# Column.7: KETEK-If
# Column.8: KETEK-FLUOR
# Column.9: KETEK-ROI_0[c/s]
# Column.10: KETEK-ROI_1[c/s]
# Column.11: KETEK-ROI_2[c/s]
# Column.12: KETEK-e-time[sec]
# Column.13: KETEK-DEADTIME[%]
# Column.14: KETEK-INT_TIME[sec]
# Column.15: KETEK-OCR
# Column.16: KETEK-ICR
# Base.file_name: Test with logging
# Element.edge: K
# Mono.name: Si 111
# Mono.d_spacing: 3.13553
# Mono.settling_time: 1.0
# Beamline.name: XAFS/XRF Beamline (08-BM)
# Beamline.collimation: slits
# Beamline.focusing: no
# Beamline.harmonic_rejection: mirror coating VCM: Si, VFM: Si
# Facility.name: SESAME Synchrotron-light
# Facility.energy: 2.50 GeV
# Facility.current: 55.2636
# Facility.xray_source: SESAME Bending Magnet
# Scan.start_time: 2021-10-18T22:04:58
# Scan.end_time: 2021-10-18T22:05:05
# Scan.edge_energy: 25000
# Scan.number: 1/1 -- intervals: 2, samples: 1
# Detector.IC1: 15cm  N2
# Detector.IC2: 30cm  N2
# Detector.IC3: 15cm  O3
# Element.symbol: Cu
# Sample.stoichiometry: NONE
# Sample.prep: fsdf
# ///
# Experiment comments and remarks: NONE
# User comments and remarks: NONE
#----
#(1)energy   (2)IC1[V]   (3)IC2[V]   (4)IC3[V]   (5)TRANS   (6)TransRef   (7)KETEK-If   (8)KETEK-FLUOR   (9)KETEK-ROI_0[c/s]   (10)KETEK-ROI_1[c/s]   (11)KETEK-ROI_2[c/s]   (12)KETEK-e-time[sec]   (13)KETEK-DEADTIME[%]   (14)KETEK-INT_TIME[sec]   (15)KETEK-OCR   (16)KETEK-ICR
1.524994e+01  1.000000e-16  1.000000e-16  4.975235e-03  0.000000e+00  -3.153808e+01  0.000000e+00  0.000000e+00  0.000000e+00  0.000000e+00  0.000000e+00  4.277370e-01  4.435315e-01  4.296426e-01  0.000000e+00  0.000000e+00
1.525093e+01  1.000000e-16  1.000000e-16  5.044371e-03  0.000000e+00  -3.155188e+01  0.000000e+00  0.000000e+00  0.000000e+00  0.000000e+00  0.000000e+00  5.031226e-01  1.064848e-01  5.036589e-01  0.000000e+00  3.975175e+00
1.525198e+01  1.000000e-16  1.000000e-16  4.983340e-03  0.000000e+00  -3.153971e+01  0.000000e+00  0.000000e+00  0.000000e+00  0.000000e+00  0.000000e+00  5.029530e-01  9.039189e-02  5.034080e-01  0.000000e+00  0.000000e+00
1.525300e+01  1.000000e-16  1.000000e-16  5.107309e-03  0.000000e+00  -3.156428e+01  0.000000e+00  0.000000e+00  0.000000e+00  0.000000e+00  0.000000e+00  5.029910e-01  1.119084e-01  5.035546e-01  0.000000e+00  0.000000e+00
1.525399e+01  1.000000e-16  1.000000e-16  5.061536e-03  0.000000e+00  -3.155528e+01  0.000000e+00  0.000000e+00  0.000000e+00  0.000000e+00  0.000000e+00  5.028483e-01  9.777874e-02  5.033405e-01  0.000000e+00  0.000000e+00
1.525506e+01  1.000000e-16  1.000000e-16  5.090621e-03  0.000000e+00  -3.156101e+01  0.000000e+00  0.000000e+00  0.000000e+00  0.000000e+00  0.000000e+00  5.033043e-01  9.864207e-02  5.038013e-01  0.000000e+00  0.000000e+00
1.525605e+01  1.000000e-16  1.000000e-16  4.966176e-03  0.000000e+00  -3.153626e+01  0.000000e+00  0.000000e+00  0.000000e+00  0.000000e+00  0.000000e+00  5.031370e-01  1.122568e-01  5.037024e-01  0.000000e+00  0.000000e+00
1.525699e+01  1.000000e-16  1.000000e-16  5.251064e-03  0.000000e+00  -3.159204e+01  0.000000e+00  0.000000e+00  0.000000e+00  0.000000e+00  0.000000e+00  5.029069e-01  9.662425e-02  5.033933e-01  0.000000e+00  0.000000e+00
1.525801e+01  1.000000e-16  1.000000e-16  5.041272e-03  0.000000e+00  -3.155126e+01  0.000000e+00  0.000000e+00  0.000000e+00  0.000000e+00  0.000000e+00  5.032614e-01  9.274835e-02  5.037286e-01  0.000000e+00  0.000000e+00
1.525903e+01  1.000000e-16  1.000000e-16  5.002413e-03  0.000000e+00  -3.154353e+01  0.000000e+00  0.000000e+00  0.000000e+00  0.000000e+00  0.000000e+00  5.028355e-01  1.120700e-01  5.033997e-01  0.000000e+00  0.000000e+00
1.526002e+01  1.000000e-16  1.000000e-16  5.208629e-03  0.000000e+00  -3.158392e+01  0.000000e+00  0.000000e+00  0.000000e+00  0.000000e+00  0.000000e+00  4.018592e-02  4.731411e-01  4.037696e-02  0.000000e+00  0.000000e+00
1.526098e+01  1.000000e-16  1.000000e-16  5.064873e-03  0.000000e+00  -3.155594e+01  0.000000e+00  0.000000e+00  0.000000e+00  0.000000e+00  0.000000e+00  1.033437e-01  2.631246e-01  1.036163e-01  0.000000e+00  0.000000e+00
1.526203e+01  1.000000e-16  1.000000e-16  4.980241e-03  0.000000e+00  -3.153908e+01  0.000000e+00  0.000000e+00  0.000000e+00  0.000000e+00  0.000000e+00  1.036544e-01  1.365754e-01  1.037962e-01  0.000000e+00  0.000000e+00
1.526299e+01  1.000000e-16  1.000000e-16  5.083946e-03  0.000000e+00  -3.155969e+01  0.000000e+00  0.000000e+00  0.000000e+00  0.000000e+00  0.000000e+00  1.035334e-01  9.664819e-02  1.036336e-01  0.000000e+00  0.000000e+00
1.526401e+01  1.000000e-16  1.000000e-16  5.028875e-03  0.000000e+00  -3.154880e+01  0.000000e+00  0.000000e+00  0.000000e+00  0.000000e+00  0.000000e+00  1.033773e-01  1.128567e-01  1.034941e-01  0.000000e+00  0.000000e+00
1.526500e+01  1.000000e-16  1.000000e-16  5.093958e-03  0.000000e+00  -3.156166e+01  0.000000e+00  0.000000e+00  0.000000e+00  0.000000e+00  0.000000e+00  1.037754e-01  1.145779e-01  1.038944e-01  0.000000e+00  0.000000e+00
1.526605e+01  1.000000e-16  1.000000e-16  5.093958e-03  0.000000e+00  -3.156166e+01  0.000000e+00  0.000000e+00  0.000000e+00  0.000000e+00  0.000000e+00  1.033098e-01  1.129304e-01  1.034266e-01  0.000000e+00  0.000000e+00
1.526707e+01  1.000000e-16  1.000000e-16  5.052715e-03  0.000000e+00  -3.155353e+01  0.000000e+00  0.000000e+00  0.000000e+00  0.000000e+00  0.000000e+00  1.034464e-01  1.109295e-01  1.035613e-01  0.000000e+00  0.000000e+00
1.526800e+01  1.000000e-16  1.000000e-16  4.912775e-03  0.000000e+00  -3.152545e+01  0.000000e+00  0.000000e+00  0.000000e+00  0.000000e+00  0.000000e+00  1.037440e-01  1.103039e-01  1.038586e-01  0.000000e+00  0.000000e+00
1.526900e+01  1.000000e-16  1.000000e-16  4.981434e-03  0.000000e+00  -3.153932e+01  0.000000e+00  0.000000e+00  0.000000e+00  0.000000e+00  0.000000e+00  1.033469e-01  9.064136e-02  1.034406e-01  0.000000e+00  0.000000e+00