File: tmp/SEM[1]/XAFS/20185101/data/csv/Test_Scan(2)2021_10_13T22_29_01.xdi
# XDI/1.0 SED_XAFS/0.9
# Column.1: energy eV
# Column.2: Ionization Chamber (IC) number 1
# Column.3: Ionization Chamber (IC) number 2
# Column.4: Ionization Chamber (IC) number 3
# Column.5: Transmission (log(IC1 current/ IC2 current))
# Column.6: Transmission Reference (log(IC2 current/IC3 current))
# Base.file_name: Test
# Scan.edge_energy: 8980.0
# Mono.name: Si 111
# Mono.d_spacing: 3.13553
# Beamline.name: 13ID
# Beamline.collimation: slits
# Beamline.focusing: no
# Beamline.harmonic_rejection: rhodium-coated mirror
# Facility.name: SESAME Synchrotron
# Facility.energy: 2.50 GeV
# Facility.xray_source: SESAME Bending Magnet
# Scan.start_time: 2021-10-13T22:35:17
# Detector.IC1: 15cm  N2
# Detector.IC2: 30cm  N2
# Detector.IC3: 15cm  N2
# Sample.name: Cu
# Sample.prep: Cu metal foil
# ///
# Cu foil Room Temperature
# measured at beamline 08-BM XAFS/XRF Beamline
#----
#(1)ENERGY-RBK   (2)IC1[V]   (3)IC2[V]   (4)IC3[V]   (5)TRANS   (6)TransRef
1.525000e+01   1.000000e-16   1.000000e-16   5.201953e-03   0.000000e+00   -3.158264e+01
1.525093e+01   1.000000e-16   1.000000e-16   5.205530e-03   0.000000e+00   -3.158333e+01
1.525198e+01   1.000000e-16   1.000000e-16   5.145214e-03   0.000000e+00   -3.157167e+01
1.525300e+01   1.000000e-16   1.000000e-16   5.106356e-03   0.000000e+00   -3.156409e+01
1.525399e+01   1.000000e-16   1.000000e-16   5.019816e-03   0.000000e+00   -3.154700e+01
1.525498e+01   1.000000e-16   1.000000e-16   5.019816e-03   0.000000e+00   -3.154700e+01
1.525600e+01   1.000000e-16   1.000000e-16   5.205053e-03   0.000000e+00   -3.158324e+01
1.525699e+01   1.000000e-16   1.000000e-16   5.144976e-03   0.000000e+00   -3.157163e+01
1.525798e+01   1.000000e-16   1.000000e-16   5.180498e-03   0.000000e+00   -3.157851e+01
1.525900e+01   1.000000e-16   1.000000e-16   5.180498e-03   0.000000e+00   -3.157851e+01
1.526002e+01   1.000000e-16   1.000000e-16   5.075840e-03   0.000000e+00   -3.155810e+01
1.526101e+01   1.000000e-16   1.000000e-16   5.211013e-03   0.000000e+00   -3.158438e+01
1.526200e+01   1.000000e-16   1.000000e-16   5.052477e-03   0.000000e+00   -3.155348e+01
1.526299e+01   1.000000e-16   1.000000e-16   5.113030e-03   0.000000e+00   -3.156540e+01
1.526401e+01   1.000000e-16   1.000000e-16   4.979527e-03   0.000000e+00   -3.153894e+01
1.526503e+01   1.000000e-16   1.000000e-16   5.085615e-03   0.000000e+00   -3.156002e+01
1.526605e+01   1.000000e-16   1.000000e-16   5.095150e-03   0.000000e+00   -3.156190e+01
1.526704e+01   1.000000e-16   1.000000e-16   5.118990e-03   0.000000e+00   -3.156656e+01
1.526803e+01   1.000000e-16   1.000000e-16   5.225555e-03   0.000000e+00   -3.158717e+01
1.526900e+01   1.000000e-16   1.000000e-16   5.094674e-03   0.000000e+00   -3.156180e+01