File: tmp/SEM[1]/XAFS/20185101/data/csv/test_2int_2scans_Scan(2)2021-10-14T15:34:14.xdi
# XDI/1.0 SED_XAFS/0.9
# Column.1: energy eV
# Column.2: Ionization Chamber (IC) number 1
# Column.3: Ionization Chamber (IC) number 2
# Column.4: Ionization Chamber (IC) number 3
# Column.5: Transmission (log(IC1 current/ IC2 current))
# Column.6: Transmission Reference (log(IC2 current/IC3 current))
# Column.7: KETEK-If
# Column.8: KETEK-FLUOR
# Column.9: KETEK-ROI_0[c/s]
# Column.10: KETEK-ROI_1[c/s]
# Column.11: KETEK-ROI_2[c/s]
# Column.12: KETEK-e-time[sec]
# Column.13: KETEK-DEADTIME[%]
# Column.14: KETEK-INT_TIME[sec]
# Column.15: KETEK-OCR
# Column.16: KETEK-ICR
# Base.file_name: test_2int_2scans
# Element.edge: K
# Mono.name: Si 111
# Mono.d_spacing: 3.13553
# Beamline.name: XAFS/XRF Beamline (08-BM)
# Beamline.collimation: slits
# Beamline.focusing: no
# Beamline.harmonic_rejection: mirror coating VCM: Si, VFM: Pt
# Facility.name: SESAME Synchrotron-light
# Facility.energy: 2.50 GeV
# Facility.current: -0.0628683
# Facility.xray_source: SESAME Bending Magnet
# Scan.start_time: 2021_10_14T15_34_14
# Scan.end_time: 2021-10-14T15:35:56
# Scan.number: 2/2 -- interval: 1/3, sample: 1/1
# Detector.IC1: 15cm  N2
# Detector.IC2: 30cm  N2
# Detector.IC3: 15cm  N2
# Element.symbol: Fe
# Sample.prep: Cu metal foil
# ///
# Cu foil Room Temperature
# measured at beamline 08-BM XAFS/XRF Beamline
#----
#(1)energy   (2)IC1[V]   (3)IC2[V]   (4)IC3[V]   (5)TRANS   (6)TransRef   (7)KETEK-If   (8)KETEK-FLUOR   (9)KETEK-ROI_0[c/s]   (10)KETEK-ROI_1[c/s]   (11)KETEK-ROI_2[c/s]   (12)KETEK-e-time[sec]   (13)KETEK-DEADTIME[%]   (14)KETEK-INT_TIME[sec]   (15)KETEK-OCR   (16)KETEK-ICR
1.524994e+01  1.000000e-16  1.000000e-16  5.211012e-03  0.000000e+00  -3.158438e+01  0.000000e+00  0.000000e+00  0.000000e+00  0.000000e+00  0.000000e+00  5.031350e-01  9.353342e-02  5.036061e-01  0.000000e+00  0.000000e+00
1.525096e+01  1.000000e-16  1.000000e-16  5.137824e-03  0.000000e+00  -3.157024e+01  0.000000e+00  0.000000e+00  0.000000e+00  0.000000e+00  0.000000e+00  5.030317e-01  1.155806e-01  5.036138e-01  0.000000e+00  0.000000e+00
1.525204e+01  1.000000e-16  1.000000e-16  5.094912e-03  0.000000e+00  -3.156185e+01  0.000000e+00  0.000000e+00  0.000000e+00  0.000000e+00  0.000000e+00  5.031798e-01  1.017129e-01  5.036922e-01  0.000000e+00  0.000000e+00
1.525300e+01  1.000000e-16  1.000000e-16  5.094436e-03  0.000000e+00  -3.156176e+01  0.000000e+00  0.000000e+00  0.000000e+00  0.000000e+00  0.000000e+00  5.028237e-01  1.165808e-01  5.034106e-01  0.000000e+00  0.000000e+00
1.525399e+01  1.000000e-16  1.000000e-16  5.171916e-03  0.000000e+00  -3.157685e+01  0.000000e+00  0.000000e+00  0.000000e+00  0.000000e+00  0.000000e+00  5.029933e-01  1.149547e-01  5.035722e-01  0.000000e+00  0.000000e+00
1.525501e+01  1.000000e-16  1.000000e-16  5.256070e-03  0.000000e+00  -3.159299e+01  0.000000e+00  0.000000e+00  0.000000e+00  0.000000e+00  0.000000e+00  5.030800e-01  1.156965e-01  5.036627e-01  0.000000e+00  0.000000e+00
1.525600e+01  1.000000e-16  1.000000e-16  4.974997e-03  0.000000e+00  -3.153803e+01  0.000000e+00  0.000000e+00  0.000000e+00  0.000000e+00  0.000000e+00  5.031632e-01  1.165657e-01  5.037504e-01  0.000000e+00  0.000000e+00
1.525699e+01  1.000000e-16  1.000000e-16  5.221264e-03  0.000000e+00  -3.158635e+01  0.000000e+00  0.000000e+00  0.000000e+00  0.000000e+00  0.000000e+00  5.031478e-01  1.166327e-01  5.037354e-01  0.000000e+00  0.000000e+00
1.525801e+01  1.000000e-16  1.000000e-16  5.221264e-03  0.000000e+00  -3.158635e+01  0.000000e+00  0.000000e+00  0.000000e+00  0.000000e+00  0.000000e+00  5.028093e-01  1.058525e-01  5.033421e-01  0.000000e+00  0.000000e+00
1.525903e+01  1.000000e-16  1.000000e-16  5.121136e-03  0.000000e+00  -3.156698e+01  0.000000e+00  0.000000e+00  0.000000e+00  0.000000e+00  0.000000e+00  5.031594e-01  1.022248e-01  5.036742e-01  0.000000e+00  3.974884e+00
1.525999e+01  1.000000e-16  1.000000e-16  5.268706e-03  0.000000e+00  -3.159539e+01  0.000000e+00  0.000000e+00  0.000000e+00  0.000000e+00  0.000000e+00  9.235190e-01  4.148351e-01  9.273661e-01  0.000000e+00  1.082815e+00
1.526101e+01  1.000000e-16  1.000000e-16  5.152128e-03  0.000000e+00  -3.157302e+01  0.000000e+00  0.000000e+00  0.000000e+00  0.000000e+00  0.000000e+00  1.005845e+00  1.551704e-01  1.007409e+00  0.000000e+00  1.988377e+00
1.526203e+01  1.000000e-16  1.000000e-16  5.106117e-03  0.000000e+00  -3.156405e+01  0.000000e+00  0.000000e+00  0.000000e+00  0.000000e+00  0.000000e+00  1.006527e+00  1.172403e-01  1.007708e+00  0.000000e+00  0.000000e+00
1.526302e+01  1.000000e-16  1.000000e-16  5.189795e-03  0.000000e+00  -3.158030e+01  0.000000e+00  0.000000e+00  0.000000e+00  0.000000e+00  0.000000e+00  1.006687e+00  1.009820e-01  1.007704e+00  0.000000e+00  0.000000e+00
1.526401e+01  1.000000e-16  1.000000e-16  5.237713e-03  0.000000e+00  -3.158949e+01  0.000000e+00  0.000000e+00  0.000000e+00  0.000000e+00  0.000000e+00  1.006265e+00  9.705709e-02  1.007242e+00  0.000000e+00  0.000000e+00
1.526503e+01  1.000000e-16  1.000000e-16  5.164763e-03  0.000000e+00  -3.157547e+01  0.000000e+00  0.000000e+00  0.000000e+00  0.000000e+00  0.000000e+00  1.006500e+00  1.157208e-01  1.007667e+00  0.000000e+00  0.000000e+00
1.526599e+01  1.000000e-16  1.000000e-16  5.167624e-03  0.000000e+00  -3.157602e+01  0.000000e+00  0.000000e+00  0.000000e+00  0.000000e+00  0.000000e+00  1.006289e+00  1.019105e-01  1.007315e+00  0.000000e+00  0.000000e+00
1.526704e+01  1.000000e-16  1.000000e-16  5.209821e-03  0.000000e+00  -3.158415e+01  0.000000e+00  0.000000e+00  0.000000e+00  0.000000e+00  0.000000e+00  1.006296e+00  1.023540e-01  1.007327e+00  0.000000e+00  0.000000e+00
1.526800e+01  1.000000e-16  1.000000e-16  5.200523e-03  0.000000e+00  -3.158237e+01  0.000000e+00  0.000000e+00  0.000000e+00  0.000000e+00  0.000000e+00  1.006269e+00  1.159695e-01  1.007437e+00  0.000000e+00  0.000000e+00
1.526902e+01  1.000000e-16  1.000000e-16  5.099203e-03  0.000000e+00  -3.156269e+01  0.000000e+00  0.000000e+00  0.000000e+00  0.000000e+00  0.000000e+00  1.006451e+00  1.005297e-01  1.007464e+00  0.000000e+00  0.000000e+00
1.527002e+01  1.000000e-16  1.000000e-16  5.174060e-03  0.000000e+00  -3.157726e+01  0.000000e+00  0.000000e+00  0.000000e+00  0.000000e+00  0.000000e+00  4.272358e-01  4.749963e-01  4.292749e-01  0.000000e+00  0.000000e+00
1.527101e+01  1.000000e-16  1.000000e-16  5.169293e-03  0.000000e+00  -3.157634e+01  0.000000e+00  0.000000e+00  0.000000e+00  0.000000e+00  0.000000e+00  5.025798e-01  2.253338e-01  5.037149e-01  0.000000e+00  0.000000e+00
1.527203e+01  1.000000e-16  1.000000e-16  5.042702e-03  0.000000e+00  -3.155155e+01  0.000000e+00  0.000000e+00  0.000000e+00  0.000000e+00  0.000000e+00  5.028746e-01  1.165690e-01  5.034614e-01  0.000000e+00  0.000000e+00
1.527302e+01  1.000000e-16  1.000000e-16  5.267037e-03  0.000000e+00  -3.159507e+01  0.000000e+00  0.000000e+00  0.000000e+00  0.000000e+00  0.000000e+00  5.030099e-01  1.154587e-01  5.035914e-01  0.000000e+00  0.000000e+00
1.527402e+01  1.000000e-16  1.000000e-16  5.178113e-03  0.000000e+00  -3.157805e+01  0.000000e+00  0.000000e+00  0.000000e+00  0.000000e+00  0.000000e+00  5.030787e-01  1.170929e-01  5.036685e-01  0.000000e+00  0.000000e+00
1.527501e+01  1.000000e-16  1.000000e-16  5.115414e-03  0.000000e+00  -3.156586e+01  0.000000e+00  0.000000e+00  0.000000e+00  0.000000e+00  0.000000e+00  5.030163e-01  1.024443e-01  5.035322e-01  0.000000e+00  0.000000e+00
1.527600e+01  1.000000e-16  1.000000e-16  5.164048e-03  0.000000e+00  -3.157533e+01  0.000000e+00  0.000000e+00  0.000000e+00  0.000000e+00  0.000000e+00  5.031984e-01  1.166210e-01  5.037859e-01  0.000000e+00  0.000000e+00
1.527705e+01  1.000000e-16  1.000000e-16  5.145930e-03  0.000000e+00  -3.157181e+01  0.000000e+00  0.000000e+00  0.000000e+00  0.000000e+00  0.000000e+00  5.030010e-01  1.006697e-01  5.035078e-01  0.000000e+00  0.000000e+00
1.527799e+01  1.000000e-16  1.000000e-16  5.053192e-03  0.000000e+00  -3.155363e+01  0.000000e+00  0.000000e+00  0.000000e+00  0.000000e+00  0.000000e+00  5.028595e-01  1.168899e-01  5.034480e-01  0.000000e+00  0.000000e+00
1.527904e+01  1.000000e-16  1.000000e-16  5.157134e-03  0.000000e+00  -3.157399e+01  0.000000e+00  0.000000e+00  0.000000e+00  0.000000e+00  0.000000e+00  5.029907e-01  1.183828e-01  5.035869e-01  0.000000e+00  0.000000e+00