File: tmp/SEM[1]/XAFS/20185101/data/csv/test_2int_2scans_Scan(1)2021-10-14T15:34:14.xdi
# XDI/1.0 SED_XAFS/0.9
# Column.1: energy eV
# Column.2: Ionization Chamber (IC) number 1
# Column.3: Ionization Chamber (IC) number 2
# Column.4: Ionization Chamber (IC) number 3
# Column.5: Transmission (log(IC1 current/ IC2 current))
# Column.6: Transmission Reference (log(IC2 current/IC3 current))
# Column.7: KETEK-If
# Column.8: KETEK-FLUOR
# Column.9: KETEK-ROI_0[c/s]
# Column.10: KETEK-ROI_1[c/s]
# Column.11: KETEK-ROI_2[c/s]
# Column.12: KETEK-e-time[sec]
# Column.13: KETEK-DEADTIME[%]
# Column.14: KETEK-INT_TIME[sec]
# Column.15: KETEK-OCR
# Column.16: KETEK-ICR
# Base.file_name: test_2int_2scans
# Element.edge: K
# Mono.name: Si 111
# Mono.d_spacing: 3.13553
# Beamline.name: XAFS/XRF Beamline (08-BM)
# Beamline.collimation: slits
# Beamline.focusing: no
# Beamline.harmonic_rejection: mirror coating VCM: Si, VFM: Pt
# Facility.name: SESAME Synchrotron-light
# Facility.energy: 2.50 GeV
# Facility.current: -0.0608667
# Facility.xray_source: SESAME Bending Magnet
# Scan.start_time: 2021_10_14T15_34_14
# Scan.end_time: 2021-10-14T15:34:47
# Scan.number: 1/2 -- interval: 1/3, sample: 1/1
# Detector.IC1: 15cm  N2
# Detector.IC2: 30cm  N2
# Detector.IC3: 15cm  N2
# Element.symbol: Fe
# Sample.prep: Cu metal foil
# ///
# Cu foil Room Temperature
# measured at beamline 08-BM XAFS/XRF Beamline
#----
#(1)energy   (2)IC1[V]   (3)IC2[V]   (4)IC3[V]   (5)TRANS   (6)TransRef   (7)KETEK-If   (8)KETEK-FLUOR   (9)KETEK-ROI_0[c/s]   (10)KETEK-ROI_1[c/s]   (11)KETEK-ROI_2[c/s]   (12)KETEK-e-time[sec]   (13)KETEK-DEADTIME[%]   (14)KETEK-INT_TIME[sec]   (15)KETEK-OCR   (16)KETEK-ICR
1.524989e+01  1.000000e-16  1.000000e-16  5.173822e-03  0.000000e+00  -3.157722e+01  0.000000e+00  0.000000e+00  0.000000e+00  0.000000e+00  0.000000e+00  4.251379e-01  4.623417e-01  4.271126e-01  0.000000e+00  0.000000e+00
1.525099e+01  1.000000e-16  1.000000e-16  5.191464e-03  0.000000e+00  -3.158062e+01  0.000000e+00  0.000000e+00  0.000000e+00  0.000000e+00  0.000000e+00  5.025670e-01  1.727010e-01  5.034365e-01  0.000000e+00  0.000000e+00
1.525204e+01  1.000000e-16  1.000000e-16  5.100872e-03  0.000000e+00  -3.156302e+01  0.000000e+00  0.000000e+00  0.000000e+00  0.000000e+00  0.000000e+00  5.029021e-01  9.884790e-02  5.033997e-01  0.000000e+00  0.000000e+00
1.525300e+01  1.000000e-16  1.000000e-16  5.122805e-03  0.000000e+00  -3.156731e+01  0.000000e+00  0.000000e+00  0.000000e+00  0.000000e+00  0.000000e+00  5.028739e-01  1.147915e-01  5.034518e-01  0.000000e+00  0.000000e+00
1.525399e+01  1.000000e-16  1.000000e-16  5.254640e-03  0.000000e+00  -3.159272e+01  0.000000e+00  0.000000e+00  0.000000e+00  0.000000e+00  0.000000e+00  5.030438e-01  9.678844e-02  5.035312e-01  0.000000e+00  0.000000e+00
1.525504e+01  1.000000e-16  1.000000e-16  5.159042e-03  0.000000e+00  -3.157436e+01  0.000000e+00  0.000000e+00  0.000000e+00  0.000000e+00  0.000000e+00  5.030602e-01  1.166530e-01  5.036477e-01  0.000000e+00  0.000000e+00
1.525600e+01  1.000000e-16  1.000000e-16  5.115653e-03  0.000000e+00  -3.156591e+01  0.000000e+00  0.000000e+00  0.000000e+00  0.000000e+00  0.000000e+00  5.029770e-01  1.164184e-01  5.035632e-01  0.000000e+00  0.000000e+00
1.525699e+01  1.000000e-16  1.000000e-16  5.260838e-03  0.000000e+00  -3.159390e+01  0.000000e+00  0.000000e+00  0.000000e+00  0.000000e+00  0.000000e+00  5.030214e-01  1.162811e-01  5.036070e-01  0.000000e+00  0.000000e+00
1.525801e+01  1.000000e-16  1.000000e-16  5.207198e-03  0.000000e+00  -3.158365e+01  0.000000e+00  0.000000e+00  0.000000e+00  0.000000e+00  0.000000e+00  5.027693e-01  1.252285e-01  5.033997e-01  0.000000e+00  0.000000e+00
1.525903e+01  1.000000e-16  1.000000e-16  5.115176e-03  0.000000e+00  -3.156582e+01  0.000000e+00  0.000000e+00  0.000000e+00  0.000000e+00  0.000000e+00  5.029027e-01  1.158007e-01  5.034858e-01  0.000000e+00  0.000000e+00
1.526002e+01  1.000000e-16  1.000000e-16  5.177875e-03  0.000000e+00  -3.157800e+01  0.000000e+00  0.000000e+00  0.000000e+00  0.000000e+00  0.000000e+00  9.393853e-01  4.385943e-01  9.435235e-01  0.000000e+00  0.000000e+00
1.526101e+01  1.000000e-16  1.000000e-16  5.122328e-03  0.000000e+00  -3.156722e+01  0.000000e+00  0.000000e+00  0.000000e+00  0.000000e+00  0.000000e+00  1.005976e+00  1.639018e-01  1.007628e+00  0.000000e+00  0.000000e+00
1.526203e+01  1.000000e-16  1.000000e-16  5.173107e-03  0.000000e+00  -3.157708e+01  0.000000e+00  0.000000e+00  0.000000e+00  0.000000e+00  0.000000e+00  1.006552e+00  1.173325e-01  1.007734e+00  0.000000e+00  0.000000e+00
1.526299e+01  1.000000e-16  1.000000e-16  5.324253e-03  0.000000e+00  -3.160588e+01  0.000000e+00  0.000000e+00  0.000000e+00  0.000000e+00  0.000000e+00  1.006450e+00  1.169003e-01  1.007628e+00  0.000000e+00  0.000000e+00
1.526401e+01  1.000000e-16  1.000000e-16  5.249395e-03  0.000000e+00  -3.159172e+01  0.000000e+00  0.000000e+00  0.000000e+00  0.000000e+00  0.000000e+00  1.006328e+00  1.152647e-01  1.007490e+00  0.000000e+00  0.000000e+00
1.526506e+01  1.000000e-16  1.000000e-16  5.150459e-03  0.000000e+00  -3.157269e+01  0.000000e+00  0.000000e+00  0.000000e+00  0.000000e+00  0.000000e+00  1.006556e+00  1.164439e-01  1.007730e+00  0.000000e+00  0.000000e+00
1.526605e+01  1.000000e-16  1.000000e-16  5.152128e-03  0.000000e+00  -3.157302e+01  0.000000e+00  0.000000e+00  0.000000e+00  0.000000e+00  0.000000e+00  1.006454e+00  1.155358e-01  1.007619e+00  0.000000e+00  0.000000e+00
1.526704e+01  1.000000e-16  1.000000e-16  5.140208e-03  0.000000e+00  -3.157070e+01  0.000000e+00  0.000000e+00  0.000000e+00  0.000000e+00  0.000000e+00  1.006184e+00  1.158206e-01  1.007351e+00  0.000000e+00  0.000000e+00
1.526798e+01  1.000000e-16  1.000000e-16  5.125666e-03  0.000000e+00  -3.156787e+01  0.000000e+00  0.000000e+00  0.000000e+00  0.000000e+00  0.000000e+00  1.006518e+00  1.263119e-01  1.007791e+00  0.000000e+00  3.974098e+00
1.526905e+01  1.000000e-16  1.000000e-16  5.137109e-03  0.000000e+00  -3.157010e+01  0.000000e+00  0.000000e+00  0.000000e+00  0.000000e+00  0.000000e+00  1.006392e+00  1.027886e-01  1.007427e+00  0.000000e+00  0.000000e+00
1.527002e+01  1.000000e-16  1.000000e-16  5.243912e-03  0.000000e+00  -3.159067e+01  0.000000e+00  0.000000e+00  0.000000e+00  0.000000e+00  0.000000e+00  4.262842e-01  4.709210e-01  4.283011e-01  0.000000e+00  0.000000e+00
1.527104e+01  1.000000e-16  1.000000e-16  5.237237e-03  0.000000e+00  -3.158940e+01  0.000000e+00  0.000000e+00  0.000000e+00  0.000000e+00  0.000000e+00  5.026573e-01  2.141439e-01  5.037360e-01  0.000000e+00  0.000000e+00
1.527203e+01  1.000000e-16  1.000000e-16  5.058437e-03  0.000000e+00  -3.155466e+01  0.000000e+00  0.000000e+00  0.000000e+00  0.000000e+00  0.000000e+00  5.031853e-01  1.171316e-01  5.037754e-01  0.000000e+00  0.000000e+00
1.527305e+01  1.000000e-16  1.000000e-16  5.104687e-03  0.000000e+00  -3.156377e+01  0.000000e+00  0.000000e+00  0.000000e+00  0.000000e+00  0.000000e+00  5.032093e-01  9.669318e-02  5.036963e-01  0.000000e+00  0.000000e+00
1.527404e+01  1.000000e-16  1.000000e-16  5.123282e-03  0.000000e+00  -3.156740e+01  0.000000e+00  0.000000e+00  0.000000e+00  0.000000e+00  0.000000e+00  5.032765e-01  1.169835e-01  5.038659e-01  0.000000e+00  0.000000e+00
1.527501e+01  1.000000e-16  1.000000e-16  5.141877e-03  0.000000e+00  -3.157102e+01  0.000000e+00  0.000000e+00  0.000000e+00  0.000000e+00  0.000000e+00  5.031309e-01  1.178422e-01  5.037245e-01  0.000000e+00  0.000000e+00
1.527600e+01  1.000000e-16  1.000000e-16  5.035073e-03  0.000000e+00  -3.155003e+01  0.000000e+00  0.000000e+00  0.000000e+00  0.000000e+00  0.000000e+00  5.030061e-01  1.156500e-01  5.035885e-01  0.000000e+00  0.000000e+00
1.527702e+01  1.000000e-16  1.000000e-16  5.176683e-03  0.000000e+00  -3.157777e+01  0.000000e+00  0.000000e+00  0.000000e+00  0.000000e+00  0.000000e+00  5.030048e-01  1.153329e-01  5.035856e-01  0.000000e+00  0.000000e+00
1.527802e+01  1.000000e-16  1.000000e-16  5.151889e-03  0.000000e+00  -3.157297e+01  0.000000e+00  0.000000e+00  0.000000e+00  0.000000e+00  0.000000e+00  5.030045e-01  1.160312e-01  5.035888e-01  0.000000e+00  0.000000e+00
1.527901e+01  1.000000e-16  1.000000e-16  5.129957e-03  0.000000e+00  -3.156870e+01  0.000000e+00  0.000000e+00  0.000000e+00  0.000000e+00  0.000000e+00  5.031344e-01  1.008970e-01  5.036426e-01  0.000000e+00  0.000000e+00