File: tmp/SEM[1]/XAFS/20185101/data/csv/Test_Scan(1)2021_10_13T23_27_26.xdi
# XDI/1.0 SED_XAFS/0.9
# Column.1: energy eV
# Column.2: Ionization Chamber (IC) number 1
# Column.3: Ionization Chamber (IC) number 2
# Column.4: Ionization Chamber (IC) number 3
# Column.5: Transmission (log(IC1 current/ IC2 current))
# Column.6: Transmission Reference (log(IC2 current/IC3 current))
# Base.file_name: Test
# Scan.edge_energy: 8980.0
# Mono.name: Si 111
# Mono.d_spacing: 3.13553
# Beamline.name: 13ID
# Beamline.collimation: slits
# Beamline.focusing: no
# Beamline.harmonic_rejection: rhodium-coated mirror
# Facility.name: SESAME Synchrotron
# Facility.energy: 2.50 GeV
# Facility.xray_source: SESAME Bending Magnet
# Scan.start_time: 2021-10-13T23:27:32
# Detector.IC1: 15cm  N2
# Detector.IC2: 30cm  N2
# Detector.IC3: 15cm  N2
# Sample.name: Cu
# Sample.prep: Cu metal foil
# ///
# Cu foil Room Temperature
# measured at beamline 08-BM XAFS/XRF Beamline
#----
#(1)ENERGY-RBK   (2)IC1[V]   (3)IC2[V]   (4)IC3[V]   (5)TRANS   (6)TransRef
1.524992e+01   1.000000e-16   1.000000e-16   5.041987e-03   0.000000e+00   -3.155141e+01
1.525102e+01   1.000000e-16   1.000000e-16   5.048424e-03   0.000000e+00   -3.155268e+01
1.525201e+01   1.000000e-16   1.000000e-16   5.112077e-03   0.000000e+00   -3.156521e+01
1.525300e+01   1.000000e-16   1.000000e-16   5.162380e-03   0.000000e+00   -3.157500e+01
1.525399e+01   1.000000e-16   1.000000e-16   5.119467e-03   0.000000e+00   -3.156666e+01
1.525501e+01   1.000000e-16   1.000000e-16   5.119467e-03   0.000000e+00   -3.156666e+01
1.525600e+01   1.000000e-16   1.000000e-16   4.990969e-03   0.000000e+00   -3.154124e+01
1.525696e+01   1.000000e-16   1.000000e-16   5.075601e-03   0.000000e+00   -3.155805e+01
1.525803e+01   1.000000e-16   1.000000e-16   5.107070e-03   0.000000e+00   -3.156423e+01
1.525903e+01   1.000000e-16   1.000000e-16   5.029829e-03   0.000000e+00   -3.154899e+01
1.525999e+01   1.000000e-16   1.000000e-16   4.937568e-03   0.000000e+00   -3.153048e+01
1.526098e+01   1.000000e-16   1.000000e-16   5.091098e-03   0.000000e+00   -3.156110e+01
1.526200e+01   1.000000e-16   1.000000e-16   5.091098e-03   0.000000e+00   -3.156110e+01
1.526299e+01   1.000000e-16   1.000000e-16   4.973089e-03   0.000000e+00   -3.153765e+01
1.526398e+01   1.000000e-16   1.000000e-16   4.973089e-03   0.000000e+00   -3.153765e+01
1.526500e+01   1.000000e-16   1.000000e-16   5.061059e-03   0.000000e+00   -3.155518e+01
1.526599e+01   1.000000e-16   1.000000e-16   5.150697e-03   0.000000e+00   -3.157274e+01
1.526701e+01   1.000000e-16   1.000000e-16   5.023153e-03   0.000000e+00   -3.154766e+01
1.526800e+01   1.000000e-16   1.000000e-16   5.079655e-03   0.000000e+00   -3.155885e+01
1.526900e+01   1.000000e-16   1.000000e-16   5.081800e-03   0.000000e+00   -3.155927e+01