File: tmp/SEM[1]/XAFS/20185101/data/csv/TestByMz_Scan(1)2021_10_11T15_50_58.xdi
# XDI/1.0 SED_XAFS/0.9
# Column.1: energy eV
# Column.2: Ionization Chamber (IC) number 1
# Column.3: Ionization Chamber (IC) number 2
# Column.4: Ionization Chamber (IC) number 3
# Column.5: Transmission (log(IC1 current/ IC2 current))
# Column.6: Transmission Reference (log(IC2 current/IC3 current))
# Column.7: KETEK-If
# Column.8: KETEK-FLUOR
# Column.9: KETEK-ROI_0[c/s]
# Column.10: KETEK-ROI_1[c/s]
# Column.11: KETEK-ROI_2[c/s]
# Column.12: KETEK-ROI_3[c/s]
# Column.13: KETEK-ROI_4[c/s]
# Column.14: KETEK-ROI_5[c/s]
# Column.15: KETEK-ROI_6[c/s]
# Column.16: KETEK-ROI_7[c/s]
# Column.17: KETEK-e-time[sec]
# Column.18: KETEK-DEADTIME[%]
# Column.19: KETEK-INT_TIME[sec]
# Column.20: KETEK-OCR
# Column.21: KETEK-ICR
# Base.file_name: TestByMz
# Scan.edge_energy: 8980.0
# Mono.name: Si 111
# Mono.d_spacing: 3.13553
# Beamline.name: 13ID
# Beamline.collimation: slits
# Beamline.focusing: no
# Beamline.harmonic_rejection: rhodium-coated mirror
# Facility.name: SESAME Synchrotron
# Facility.energy: 2.50 GeV
# Facility.xray_source: SESAME Bending Magnet
# Scan.start_time: 2021-10-11T15:53:06
# Detector.IC1: 15cm  He
# Detector.IC2: 30cm  He
# Detector.IC3: 15cm  He
# Sample.name: Cu
# Sample.prep: Cu metal foil
# ///
# Cu foil Room Temperature
# measured at beamline 08-BM XAFS/XRF Beamline
#----
#(1)ENERGY-RBK   (2)IC1[V]   (3)IC2[V]   (4)IC3[V]   (5)TRANS   (6)TransRef   (7)KETEK-If   (8)KETEK-FLUOR   (9)KETEK-ROI_0[c/s]   (10)KETEK-ROI_1[c/s]   (11)KETEK-ROI_2[c/s]   (12)KETEK-ROI_3[c/s]   (13)KETEK-ROI_4[c/s]   (14)KETEK-ROI_5[c/s]   (15)KETEK-ROI_6[c/s]   (16)KETEK-ROI_7[c/s]   (17)KETEK-e-time[sec]   (18)KETEK-DEADTIME[%]   (19)KETEK-INT_TIME[sec]   (20)KETEK-OCR   (21)KETEK-ICR
1.524997e+01 1.000000e-16 1.000000e-16 5.104925e-03 0.000000e+00 -3.156381e+01 0.000000e+00 0.000000e+00 0.000000e+00 0.000000e+00 0.000000e+00 0.000000e+00 0.000000e+00 0.000000e+00 0.000000e+00 0.000000e+00 1.003279e+00 4.479333e-01 1.007793e+00 0.000000e+00 0.000000e+00
1.525096e+01 1.000000e-16 1.000000e-16 5.096342e-03 0.000000e+00 -3.156213e+01 0.000000e+00 0.000000e+00 0.000000e+00 0.000000e+00 0.000000e+00 0.000000e+00 0.000000e+00 0.000000e+00 0.000000e+00 0.000000e+00 1.006252e+00 1.234586e-01 1.007496e+00 0.000000e+00 9.937870e-01
1.525201e+01 1.000000e-16 1.000000e-16 5.159519e-03 0.000000e+00 -3.157445e+01 0.000000e+00 0.000000e+00 0.000000e+00 0.000000e+00 0.000000e+00 0.000000e+00 0.000000e+00 0.000000e+00 0.000000e+00 0.000000e+00 1.006416e+00 1.203618e-01 1.007629e+00 0.000000e+00 0.000000e+00
1.525303e+01 1.000000e-16 1.000000e-16 5.110170e-03 0.000000e+00 -3.156484e+01 0.000000e+00 0.000000e+00 0.000000e+00 0.000000e+00 0.000000e+00 0.000000e+00 0.000000e+00 0.000000e+00 0.000000e+00 0.000000e+00 1.006238e+00 1.014079e-01 1.007259e+00 0.000000e+00 0.000000e+00
1.525402e+01 1.000000e-16 1.000000e-16 5.117322e-03 0.000000e+00 -3.156624e+01 0.000000e+00 0.000000e+00 0.000000e+00 0.000000e+00 0.000000e+00 0.000000e+00 0.000000e+00 0.000000e+00 0.000000e+00 0.000000e+00 1.006161e+00 1.316225e-01 1.007487e+00 0.000000e+00 0.000000e+00
1.525501e+01 1.000000e-16 1.000000e-16 5.101587e-03 0.000000e+00 -3.156316e+01 0.000000e+00 0.000000e+00 0.000000e+00 0.000000e+00 0.000000e+00 0.000000e+00 0.000000e+00 0.000000e+00 0.000000e+00 0.000000e+00 1.006150e+00 1.066217e-01 1.007224e+00 0.000000e+00 0.000000e+00
1.525597e+01 1.000000e-16 1.000000e-16 5.087522e-03 0.000000e+00 -3.156040e+01 0.000000e+00 0.000000e+00 0.000000e+00 0.000000e+00 0.000000e+00 0.000000e+00 0.000000e+00 0.000000e+00 0.000000e+00 0.000000e+00 1.006381e+00 1.051060e-01 1.007440e+00 0.000000e+00 0.000000e+00
1.525600e+01 1.000000e-16 1.000000e-16 5.148075e-03 0.000000e+00 -3.157223e+01 0.000000e+00 0.000000e+00 0.000000e+00 0.000000e+00 0.000000e+00 0.000000e+00 0.000000e+00 0.000000e+00 0.000000e+00 0.000000e+00 1.994231e+00 3.706063e-01 2.001650e+00 0.000000e+00 0.000000e+00
1.525704e+01 1.000000e-16 1.000000e-16 5.272281e-03 0.000000e+00 -3.159607e+01 0.000000e+00 0.000000e+00 0.000000e+00 0.000000e+00 0.000000e+00 0.000000e+00 0.000000e+00 0.000000e+00 0.000000e+00 0.000000e+00 2.998296e+00 2.881315e-01 3.006960e+00 0.000000e+00 0.000000e+00
1.525803e+01 1.000000e-16 1.000000e-16 5.220310e-03 0.000000e+00 -3.158616e+01 0.000000e+00 0.000000e+00 0.000000e+00 0.000000e+00 0.000000e+00 0.000000e+00 0.000000e+00 0.000000e+00 0.000000e+00 0.000000e+00 3.003814e+00 1.218509e-01 3.007479e+00 0.000000e+00 0.000000e+00
1.525903e+01 1.000000e-16 1.000000e-16 5.103494e-03 0.000000e+00 -3.156353e+01 0.000000e+00 0.000000e+00 0.000000e+00 0.000000e+00 0.000000e+00 0.000000e+00 0.000000e+00 0.000000e+00 0.000000e+00 0.000000e+00 3.003996e+00 1.032330e-01 3.007100e+00 0.000000e+00 1.331560e+00